step    Monochromator-step  cps
1.000	3900.000	1830.000
2.000	3900.200	1730.000
3.000	3900.400	1830.000
4.000	3900.600	1730.000
5.000	3900.800	2020.000
6.000	3901.000	2020.000
7.000	3901.200	2260.000
8.000	3901.400	1990.000
9.000	3901.600	1840.000
10.000	3901.800	2140.000
11.000	3902.000	2160.000
12.000	3902.200	2140.000
13.000	3902.400	2110.000
14.000	3902.600	2320.000
15.000	3902.800	1940.000
16.000	3903.000	1660.000
17.000	3903.200	2070.000
18.000	3903.400	2060.000
19.000	3903.600	1860.000
20.000	3903.800	1900.000
21.000	3904.000	1720.000
22.000	3904.200	2020.000
23.000	3904.400	1970.000
24.000	3904.600	1720.000
25.000	3904.800	1580.000
26.000	3905.000	2040.000
27.000	3905.200	1800.000
28.000	3905.400	1600.000
29.000	3905.600	1950.000
30.000	3905.800	2140.000
31.000	3906.000	1650.000
32.000	3906.200	1820.000
33.000	3906.400	1900.000
34.000	3906.600	1880.000
35.000	3906.800	2000.000
36.000	3907.000	1880.000
37.000	3907.200	1570.000
38.000	3907.400	1940.000
39.000	3907.600	2030.000
40.000	3907.800	1750.000
41.000	3908.000	1670.000
42.000	3908.200	1940.000
43.000	3908.400	2070.000
44.000	3908.600	2310.000
45.000	3908.800	2040.000
46.000	3909.000	1780.000
47.000	3909.200	1580.000
48.000	3909.400	1700.000
49.000	3909.600	2150.000
50.000	3909.800	2130.000
51.000	3910.000	1940.000
52.000	3910.200	2150.000
53.000	3910.400	1770.000
54.000	3910.600	1730.000
55.000	3910.800	1570.000
56.000	3911.000	1640.000
57.000	3911.200	1930.000
58.000	3911.400	1940.000
59.000	3911.600	2130.000
60.000	3911.800	1990.000
61.000	3912.000	1920.000
62.000	3912.200	1540.000
63.000	3912.400	1890.000
64.000	3912.600	1830.000
65.000	3912.800	1550.000
66.000	3913.000	1650.000
67.000	3913.200	1810.000
68.000	3913.400	1450.000
69.000	3913.600	1990.000
70.000	3913.800	1810.000
71.000	3914.000	1730.000
72.000	3914.200	1950.000
73.000	3914.400	1800.000
74.000	3914.600	1960.000
75.000	3914.800	1740.000
76.000	3915.000	1850.000
77.000	3915.200	1610.000
78.000	3915.400	1530.000
79.000	3915.600	1730.000
80.000	3915.800	1870.000
81.000	3916.000	1530.000
82.000	3916.200	1810.000
83.000	3916.400	1970.000
84.000	3916.600	1930.000
85.000	3916.800	1870.000
86.000	3917.000	1750.000
87.000	3917.200	1670.000
88.000	3917.400	2140.000
89.000	3917.600	2450.000
90.000	3917.800	2630.000
91.000	3918.000	2570.000
92.000	3918.200	2400.000
93.000	3918.400	2100.000
94.000	3918.600	1630.000
95.000	3918.800	1880.000
96.000	3919.000	1720.000
97.000	3919.200	1710.000
98.000	3919.400	1510.000
99.000	3919.600	1850.000
100.000	3919.800	1900.000
101.000	3920.000	1740.000
102.000	3920.200	1830.000
103.000	3920.400	1840.000
104.000	3920.600	1870.000
105.000	3920.800	1470.000
106.000	3921.000	1840.000
107.000	3921.200	1980.000
108.000	3921.400	1810.000
109.000	3921.600	1900.000
110.000	3921.800	1630.000
111.000	3922.000	1580.000
112.000	3922.200	1740.000
113.000	3922.400	1800.000
114.000	3922.600	1530.000
115.000	3922.800	1780.000
116.000	3923.000	1840.000
117.000	3923.200	2070.000
118.000	3923.400	1900.000
119.000	3923.600	1920.000
120.000	3923.800	2360.000
121.000	3924.000	2090.000
122.000	3924.200	1880.000
123.000	3924.400	1530.000
124.000	3924.600	1750.000
125.000	3924.800	2150.000
126.000	3925.000	1830.000
127.000	3925.200	2090.000
128.000	3925.400	1950.000
129.000	3925.600	2030.000
130.000	3925.800	1720.000
131.000	3926.000	2010.000
132.000	3926.200	2450.000
133.000	3926.400	4310.000
134.000	3926.600	4630.000
135.000	3926.800	4070.000
136.000	3927.000	2110.000
137.000	3927.200	1860.000
138.000	3927.400	1810.000
139.000	3927.600	1710.000
140.000	3927.800	2140.000
141.000	3928.000	2170.000
142.000	3928.200	1840.000
143.000	3928.400	2020.000
144.000	3928.600	2220.000
145.000	3928.800	1860.000
146.000	3929.000	1500.000
147.000	3929.200	1620.000
148.000	3929.400	1690.000
149.000	3929.600	1460.000
150.000	3929.800	1500.000
151.000	3930.000	1580.000
152.000	3930.200	1950.000
153.000	3930.400	1910.000
154.000	3930.600	2990.000
155.000	3930.800	2800.000
156.000	3931.000	2440.000
157.000	3931.200	1900.000
158.000	3931.400	1830.000
159.000	3931.600	1800.000
160.000	3931.800	1640.000
161.000	3932.000	1690.000
162.000	3932.200	1770.000
163.000	3932.400	1810.000
164.000	3932.600	1700.000
165.000	3932.800	1470.000
166.000	3933.000	1760.000
167.000	3933.200	1850.000
168.000	3933.400	1990.000
169.000	3933.600	2610.000
170.000	3933.800	3330.000
171.000	3934.000	2420.000
172.000	3934.200	1960.000
173.000	3934.400	2400.000
174.000	3934.600	2700.000
175.000	3934.800	2550.000
176.000	3935.000	2010.000
177.000	3935.200	1710.000
178.000	3935.400	2230.000
179.000	3935.600	2970.000
180.000	3935.800	3120.000
181.000	3936.000	2490.000
182.000	3936.200	1530.000
183.000	3936.400	1840.000
184.000	3936.600	2320.000
185.000	3936.800	2410.000
186.000	3937.000	2510.000
187.000	3937.200	1740.000
188.000	3937.400	1450.000
189.000	3937.600	1680.000
190.000	3937.800	2200.000
191.000	3938.000	2590.000
192.000	3938.200	2250.000
193.000	3938.400	2260.000
194.000	3938.600	1810.000
195.000	3938.800	1790.000
196.000	3939.000	2650.000
197.000	3939.200	2370.000
198.000	3939.400	2610.000
199.000	3939.600	2440.000
200.000	3939.800	3200.000
201.000	3940.000	2690.000
202.000	3940.200	2430.000
203.000	3940.400	2470.000
204.000	3940.600	2390.000
205.000	3940.800	1690.000
206.000	3941.000	1480.000
207.000	3941.200	2090.000
208.000	3941.400	2250.000
209.000	3941.600	2700.000
210.000	3941.800	2330.000
211.000	3942.000	1440.000
212.000	3942.200	1720.000
213.000	3942.400	2560.000
214.000	3942.600	4260.000
215.000	3942.800	3990.000
216.000	3943.000	2660.000
217.000	3943.200	1850.000
218.000	3943.400	2170.000
219.000	3943.600	2900.000
220.000	3943.800	2710.000
221.000	3944.000	1970.000
222.000	3944.200	1790.000
223.000	3944.400	1550.000
224.000	3944.600	1580.000
225.000	3944.800	1580.000
226.000	3945.000	1800.000
227.000	3945.200	1980.000
228.000	3945.400	2140.000
229.000	3945.600	1810.000
230.000	3945.800	2110.000
231.000	3946.000	1680.000
232.000	3946.200	2010.000
233.000	3946.400	2080.000
234.000	3946.600	1770.000
235.000	3946.800	2510.000
236.000	3947.000	4050.000
237.000	3947.200	3530.000
238.000	3947.400	1990.000
239.000	3947.600	1750.000
240.000	3947.800	1710.000
241.000	3948.000	1710.000
242.000	3948.200	1540.000
243.000	3948.400	1560.000
244.000	3948.600	1470.000
245.000	3948.800	1400.000
246.000	3949.000	1630.000
247.000	3949.200	1400.000
248.000	3949.400	1840.000
249.000	3949.600	3000.000
250.000	3949.800	4050.000
251.000	3950.000	3450.000
252.000	3950.200	1810.000
253.000	3950.400	1860.000
254.000	3950.600	1770.000
255.000	3950.800	1800.000
256.000	3951.000	1840.000
257.000	3951.200	1990.000
258.000	3951.400	2400.000
259.000	3951.600	1860.000
260.000	3951.800	1770.000
261.000	3952.000	1530.000
262.000	3952.200	1400.000
263.000	3952.400	1600.000
264.000	3952.600	1840.000
265.000	3952.800	1670.000
266.000	3953.000	1820.000
267.000	3953.200	1890.000
268.000	3953.400	1720.000
269.000	3953.600	1440.000
270.000	3953.800	1780.000
271.000	3954.000	2040.000
272.000	3954.200	2190.000
273.000	3954.400	1930.000
274.000	3954.600	1620.000
275.000	3954.800	1450.000
276.000	3955.000	1670.000
277.000	3955.200	1720.000
278.000	3955.400	1590.000
279.000	3955.600	1520.000
280.000	3955.800	1560.000
281.000	3956.000	1640.000
282.000	3956.200	1620.000
283.000	3956.400	1790.000
284.000	3956.600	1520.000
285.000	3956.800	1600.000
286.000	3957.000	1390.000
287.000	3957.200	1510.000
288.000	3957.400	1500.000
289.000	3957.600	2200.000
290.000	3957.800	1610.000
291.000	3958.000	1470.000
292.000	3958.200	1500.000
293.000	3958.400	1610.000
294.000	3958.600	1740.000
295.000	3958.800	3010.000
296.000	3959.000	2650.000
297.000	3959.200	1770.000
298.000	3959.400	1490.000
299.000	3959.600	1390.000
300.000	3959.800	1530.000
301.000	3960.000	1540.000
302.000	3960.200	1550.000
303.000	3960.400	1280.000
304.000	3960.600	1260.000
305.000	3960.800	1400.000
306.000	3961.000	1240.000
307.000	3961.200	1480.000
308.000	3961.400	1580.000
309.000	3961.600	1390.000
310.000	3961.800	1730.000
311.000	3962.000	1880.000
312.000	3962.200	2060.000
313.000	3962.400	1820.000
314.000	3962.600	1820.000
315.000	3962.800	1350.000
316.000	3963.000	1390.000
317.000	3963.200	1500.000
318.000	3963.400	1570.000
319.000	3963.600	1480.000
320.000	3963.800	1530.000
321.000	3964.000	1800.000
322.000	3964.200	1530.000
323.000	3964.400	1550.000
324.000	3964.600	1750.000
325.000	3964.800	1470.000
326.000	3965.000	1710.000
327.000	3965.200	2170.000
328.000	3965.400	1540.000
329.000	3965.600	1450.000
330.000	3965.800	1670.000
331.000	3966.000	1620.000
332.000	3966.200	1720.000
333.000	3966.400	2100.000
334.000	3966.600	2090.000
335.000	3966.800	2030.000
336.000	3967.000	1900.000
337.000	3967.200	1700.000
338.000	3967.400	1990.000
339.000	3967.600	2840.000
340.000	3967.800	2520.000
341.000	3968.000	2640.000
342.000	3968.200	2170.000
343.000	3968.400	1900.000
344.000	3968.600	1780.000
345.000	3968.800	1310.000
346.000	3969.000	1440.000
347.000	3969.200	1410.000
348.000	3969.400	1490.000
349.000	3969.600	1610.000
350.000	3969.800	1430.000
351.000	3970.000	1640.000
352.000	3970.200	1670.000
353.000	3970.400	1920.000
354.000	3970.600	1760.000
355.000	3970.800	1650.000
356.000	3971.000	1630.000
357.000	3971.200	1550.000
358.000	3971.400	1470.000
359.000	3971.600	1680.000
360.000	3971.800	1570.000
361.000	3972.000	1410.000
362.000	3972.200	1560.000
363.000	3972.400	1270.000
364.000	3972.600	1430.000
365.000	3972.800	1460.000
366.000	3973.000	1860.000
367.000	3973.200	1800.000
368.000	3973.400	1740.000
369.000	3973.600	1480.000
370.000	3973.800	1730.000
371.000	3974.000	1610.000
372.000	3974.200	1900.000
373.000	3974.400	1680.000
374.000	3974.600	1900.000
375.000	3974.800	1390.000
376.000	3975.000	1520.000
377.000	3975.200	1650.000
378.000	3975.400	1910.000
379.000	3975.600	2160.000
380.000	3975.800	1860.000
381.000	3976.000	1520.000
382.000	3976.200	1640.000
383.000	3976.400	1450.000
384.000	3976.600	1480.000
385.000	3976.800	1450.000
386.000	3977.000	1530.000
387.000	3977.200	1560.000
388.000	3977.400	1600.000
389.000	3977.600	1440.000
390.000	3977.800	1390.000
391.000	3978.000	1580.000
392.000	3978.200	1470.000
393.000	3978.400	1600.000
394.000	3978.600	1500.000
395.000	3978.800	1490.000
396.000	3979.000	1470.000
397.000	3979.200	1240.000
398.000	3979.400	1490.000
399.000	3979.600	1440.000
400.000	3979.800	1420.000
401.000	3980.000	1420.000
402.000	3980.200	1640.000
403.000	3980.400	2680.000
404.000	3980.600	3080.000
405.000	3980.800	2280.000
406.000	3981.000	1570.000
407.000	3981.200	1620.000
408.000	3981.400	1850.000
409.000	3981.600	2730.000
410.000	3981.800	2670.000
411.000	3982.000	1700.000
412.000	3982.200	1580.000
413.000	3982.400	1260.000
414.000	3982.600	1220.000
415.000	3982.800	1500.000
416.000	3983.000	1380.000
417.000	3983.200	1580.000
418.000	3983.400	1720.000
419.000	3983.600	1410.000
420.000	3983.800	1480.000
421.000	3984.000	1560.000
422.000	3984.200	1550.000
423.000	3984.400	1540.000
424.000	3984.600	1330.000
425.000	3984.800	1470.000
426.000	3985.000	1390.000
427.000	3985.200	1610.000
428.000	3985.400	1530.000
429.000	3985.600	1690.000
430.000	3985.800	1930.000
431.000	3986.000	2050.000
432.000	3986.200	1680.000
433.000	3986.400	1560.000
434.000	3986.600	1410.000
435.000	3986.800	1280.000
436.000	3987.000	1140.000
437.000	3987.200	1660.000
438.000	3987.400	1480.000
439.000	3987.600	1420.000
440.000	3987.800	1720.000
441.000	3988.000	1480.000
442.000	3988.200	1670.000
443.000	3988.400	1350.000
444.000	3988.600	1340.000
445.000	3988.800	1300.000
446.000	3989.000	1760.000
447.000	3989.200	1870.000
448.000	3989.400	1480.000
449.000	3989.600	1520.000
450.000	3989.800	1500.000
451.000	3990.000	1660.000
452.000	3990.200	1440.000
453.000	3990.400	1370.000
454.000	3990.600	1450.000
455.000	3990.800	1290.000
456.000	3991.000	1640.000
457.000	3991.200	1180.000
458.000	3991.400	1160.000
459.000	3991.600	1230.000
460.000	3991.800	1610.000
461.000	3992.000	1440.000
462.000	3992.200	1470.000
463.000	3992.400	1310.000
464.000	3992.600	1490.000
465.000	3992.800	1330.000
466.000	3993.000	1380.000
467.000	3993.200	1240.000
468.000	3993.400	1870.000
469.000	3993.600	2240.000
470.000	3993.800	1890.000
471.000	3994.000	1580.000
472.000	3994.200	1780.000
473.000	3994.400	1870.000
474.000	3994.600	1700.000
475.000	3994.800	1380.000
476.000	3995.000	1430.000
477.000	3995.200	1450.000
478.000	3995.400	1410.000
479.000	3995.600	1340.000
480.000	3995.800	1520.000
481.000	3996.000	1620.000
482.000	3996.200	1640.000
483.000	3996.400	1370.000
484.000	3996.600	1470.000
485.000	3996.800	1380.000
486.000	3997.000	1370.000
487.000	3997.200	1440.000
488.000	3997.400	1290.000
489.000	3997.600	1410.000
490.000	3997.800	1480.000
491.000	3998.000	1520.000
492.000	3998.200	1010.000
493.000	3998.400	1170.000
494.000	3998.600	1330.000
495.000	3998.800	1300.000
496.000	3999.000	1370.000
497.000	3999.200	1540.000
498.000	3999.400	1430.000
499.000	3999.600	1480.000
500.000	3999.800	1430.000
501.000	4000.000	1200.000
502.000	4000.200	1190.000
503.000	4000.400	1230.000
504.000	4000.600	1500.000
505.000	4000.800	1620.000
506.000	4001.000	1630.000
507.000	4001.200	1710.000
508.000	4001.400	2430.000
509.000	4001.600	1990.000
510.000	4001.800	1330.000
511.000	4002.000	1240.000
512.000	4002.200	1460.000
513.000	4002.400	1130.000
514.000	4002.600	1450.000
515.000	4002.800	1600.000
516.000	4003.000	1390.000
517.000	4003.200	1620.000
518.000	4003.400	1220.000
519.000	4003.600	1270.000
520.000	4003.800	1290.000
521.000	4004.000	1530.000
522.000	4004.200	1780.000
523.000	4004.400	1500.000
524.000	4004.600	1420.000
525.000	4004.800	1960.000
526.000	4005.000	2310.000
527.000	4005.200	1530.000
528.000	4005.400	1460.000
529.000	4005.600	1480.000
530.000	4005.800	1590.000
531.000	4006.000	1580.000
532.000	4006.200	2620.000
533.000	4006.400	2200.000
534.000	4006.600	2090.000
535.000	4006.800	2410.000
536.000	4007.000	3260.000
537.000	4007.200	2990.000
538.000	4007.400	1860.000
539.000	4007.600	1330.000
540.000	4007.800	1320.000
541.000	4008.000	1360.000
542.000	4008.200	1330.000
543.000	4008.400	1490.000
544.000	4008.600	1220.000
545.000	4008.800	1250.000
546.000	4009.000	1590.000
547.000	4009.200	1870.000
548.000	4009.400	1540.000
549.000	4009.600	1870.000
550.000	4009.800	1410.000
551.000	4010.000	1410.000
552.000	4010.200	1440.000
553.000	4010.400	1260.000
554.000	4010.600	1410.000
555.000	4010.800	1950.000
556.000	4011.000	2690.000
557.000	4011.200	3420.000
558.000	4011.400	2800.000
559.000	4011.600	1670.000
560.000	4011.800	1460.000
561.000	4012.000	1590.000
562.000	4012.200	1480.000
563.000	4012.400	1610.000
564.000	4012.600	1410.000
565.000	4012.800	1580.000
566.000	4013.000	1460.000
567.000	4013.200	1230.000
568.000	4013.400	1480.000
569.000	4013.600	1310.000
570.000	4013.800	2530.000
571.000	4014.000	4230.000
572.000	4014.200	3590.000
573.000	4014.400	1770.000
574.000	4014.600	1370.000
575.000	4014.800	1670.000
576.000	4015.000	1540.000
577.000	4015.200	1350.000
578.000	4015.400	1520.000
579.000	4015.600	1940.000
580.000	4015.800	3040.000
581.000	4016.000	2770.000
582.000	4016.200	1550.000
583.000	4016.400	1470.000
584.000	4016.600	1300.000
585.000	4016.800	1580.000
586.000	4017.000	1890.000
587.000	4017.200	2160.000
588.000	4017.400	1980.000
589.000	4017.600	1530.000
590.000	4017.800	1200.000
591.000	4018.000	1180.000
592.000	4018.200	1630.000
593.000	4018.400	2010.000
594.000	4018.600	1740.000
595.000	4018.800	1360.000
596.000	4019.000	1300.000
597.000	4019.200	1300.000
598.000	4019.400	1420.000
599.000	4019.600	1440.000
600.000	4019.800	1380.000
601.000	4020.000	1460.000
602.000	4020.200	1610.000
603.000	4020.400	1620.000
604.000	4020.600	1560.000
605.000	4020.800	1420.000
606.000	4021.000	1470.000
607.000	4021.200	1540.000
608.000	4021.400	1630.000
609.000	4021.600	1610.000
610.000	4021.800	1650.000
611.000	4022.000	1520.000
612.000	4022.200	1620.000
613.000	4022.400	1650.000
614.000	4022.600	1520.000
615.000	4022.800	1510.000
616.000	4023.000	1340.000
617.000	4023.200	1260.000
618.000	4023.400	1330.000
619.000	4023.600	1370.000
620.000	4023.800	1460.000
621.000	4024.000	1380.000
622.000	4024.200	1180.000
623.000	4024.400	1500.000
624.000	4024.600	2190.000
625.000	4024.800	2410.000
626.000	4025.000	1800.000
627.000	4025.200	1550.000
628.000	4025.400	1480.000
629.000	4025.600	1590.000
630.000	4025.800	1530.000
631.000	4026.000	1820.000
632.000	4026.200	1420.000
633.000	4026.400	1480.000
634.000	4026.600	1230.000
635.000	4026.800	1430.000
636.000	4027.000	2290.000
637.000	4027.200	2940.000
638.000	4027.400	2450.000
639.000	4027.600	1310.000
640.000	4027.800	1470.000
641.000	4028.000	1160.000
642.000	4028.200	1430.000
643.000	4028.400	1310.000
644.000	4028.600	1240.000
645.000	4028.800	1460.000
646.000	4029.000	1580.000
647.000	4029.200	1100.000
648.000	4029.400	1310.000
649.000	4029.600	1570.000
650.000	4029.800	1620.000
651.000	4030.000	1780.000
652.000	4030.200	2730.000
653.000	4030.400	2220.000
654.000	4030.600	1390.000
655.000	4030.800	1440.000
656.000	4031.000	1320.000
657.000	4031.200	1340.000
658.000	4031.400	1590.000
659.000	4031.600	1250.000
660.000	4031.800	1380.000
661.000	4032.000	1720.000
662.000	4032.200	1540.000
663.000	4032.400	1350.000
664.000	4032.600	1700.000
665.000	4032.800	2180.000
666.000	4033.000	2110.000
667.000	4033.200	1690.000
668.000	4033.400	1390.000
669.000	4033.600	1190.000
670.000	4033.800	1430.000
671.000	4034.000	1220.000
672.000	4034.200	1440.000
673.000	4034.400	1490.000
674.000	4034.600	1410.000
675.000	4034.800	1720.000
676.000	4035.000	1330.000
677.000	4035.200	1750.000
678.000	4035.400	1510.000
679.000	4035.600	1550.000
680.000	4035.800	1640.000
681.000	4036.000	1530.000
682.000	4036.200	2100.000
683.000	4036.400	2390.000
684.000	4036.600	2190.000
685.000	4036.800	2150.000
686.000	4037.000	1110.000
687.000	4037.200	1400.000
688.000	4037.400	1170.000
689.000	4037.600	1360.000
690.000	4037.800	1400.000
691.000	4038.000	1090.000
692.000	4038.200	1260.000
693.000	4038.400	1420.000
694.000	4038.600	1580.000
695.000	4038.800	1770.000
696.000	4039.000	1640.000
697.000	4039.200	1420.000
698.000	4039.400	1450.000
699.000	4039.600	1440.000
700.000	4039.800	1220.000
701.000	4040.000	1550.000
702.000	4040.200	1340.000
703.000	4040.400	1060.000
704.000	4040.600	920.000
705.000	4040.800	1380.000
706.000	4041.000	1150.000
707.000	4041.200	1420.000
708.000	4041.400	1710.000
709.000	4041.600	1880.000
710.000	4041.800	2120.000
711.000	4042.000	1460.000
712.000	4042.200	1160.000
713.000	4042.400	1430.000
714.000	4042.600	1430.000
715.000	4042.800	1320.000
716.000	4043.000	1320.000
717.000	4043.200	1820.000
718.000	4043.400	1500.000
719.000	4043.600	1690.000
720.000	4043.800	1610.000
721.000	4044.000	1560.000
722.000	4044.200	1370.000
723.000	4044.400	1420.000
724.000	4044.600	1560.000
725.000	4044.800	1610.000
726.000	4045.000	1710.000
727.000	4045.200	1430.000
728.000	4045.400	1240.000
729.000	4045.600	1300.000
730.000	4045.800	1230.000
731.000	4046.000	1170.000
732.000	4046.200	1260.000
733.000	4046.400	1410.000
734.000	4046.600	1330.000
735.000	4046.800	1250.000
736.000	4047.000	1380.000
737.000	4047.200	1280.000
738.000	4047.400	1500.000
739.000	4047.600	1290.000
740.000	4047.800	1070.000
741.000	4048.000	1180.000
742.000	4048.200	1100.000
743.000	4048.400	1470.000
744.000	4048.600	1570.000
745.000	4048.800	1580.000
746.000	4049.000	1340.000
747.000	4049.200	1220.000
748.000	4049.400	1550.000
749.000	4049.600	1410.000
750.000	4049.800	1420.000
751.000	4050.000	1100.000
752.000	4050.200	990.000
753.000	4050.400	1240.000
754.000	4050.600	1290.000
755.000	4050.800	1850.000
756.000	4051.000	3030.000
757.000	4051.200	2610.000
758.000	4051.400	1420.000
759.000	4051.600	1150.000
760.000	4051.800	1200.000
761.000	4052.000	1540.000
762.000	4052.200	1770.000
763.000	4052.400	1480.000
764.000	4052.600	900.000
765.000	4052.800	1230.000
766.000	4053.000	1230.000
767.000	4053.200	1110.000
768.000	4053.400	1190.000
769.000	4053.600	1330.000
770.000	4053.800	1160.000
771.000	4054.000	1200.000
772.000	4054.200	1370.000
773.000	4054.400	1390.000
774.000	4054.600	1500.000
775.000	4054.800	2490.000
776.000	4055.000	2060.000
777.000	4055.200	1600.000
778.000	4055.400	1400.000
779.000	4055.600	1520.000
780.000	4055.800	1380.000
781.000	4056.000	1280.000
782.000	4056.200	1480.000
783.000	4056.400	1240.000
784.000	4056.600	2030.000
785.000	4056.800	4120.000
786.000	4057.000	3590.000
787.000	4057.200	2820.000
788.000	4057.400	2060.000
789.000	4057.600	1930.000
790.000	4057.800	1490.000
791.000	4058.000	1430.000
792.000	4058.200	1180.000
793.000	4058.400	1170.000
794.000	4058.600	1370.000
795.000	4058.800	1450.000
796.000	4059.000	1380.000
797.000	4059.200	1780.000
798.000	4059.400	1500.000
799.000	4059.600	1510.000
800.000	4059.800	1880.000
801.000	4060.000	2150.000
802.000	4060.200	1420.000
803.000	4060.400	1210.000
804.000	4060.600	1060.000
805.000	4060.800	1140.000
806.000	4061.000	1230.000
807.000	4061.200	1230.000
808.000	4061.400	1220.000
809.000	4061.600	1430.000
810.000	4061.800	1770.000
811.000	4062.000	2280.000
812.000	4062.200	2080.000
813.000	4062.400	1550.000
814.000	4062.600	1190.000
815.000	4062.800	1220.000
816.000	4063.000	1100.000
817.000	4063.200	1120.000
818.000	4063.400	1260.000
819.000	4063.600	1070.000
820.000	4063.800	1080.000
821.000	4064.000	1440.000
822.000	4064.200	1190.000
823.000	4064.400	1290.000
824.000	4064.600	1270.000
825.000	4064.800	1360.000
826.000	4065.000	1230.000
827.000	4065.200	1290.000
828.000	4065.400	1330.000
829.000	4065.600	1310.000
830.000	4065.800	1200.000
831.000	4066.000	1240.000
832.000	4066.200	1390.000
833.000	4066.400	1310.000
834.000	4066.600	1170.000
835.000	4066.800	1240.000
836.000	4067.000	1260.000
837.000	4067.200	1330.000
838.000	4067.400	1410.000
839.000	4067.600	1640.000
840.000	4067.800	1480.000
841.000	4068.000	1500.000
842.000	4068.200	1300.000
843.000	4068.400	1240.000
844.000	4068.600	1090.000
845.000	4068.800	1290.000
846.000	4069.000	1220.000
847.000	4069.200	1440.000
848.000	4069.400	1290.000
849.000	4069.600	1660.000
850.000	4069.800	1430.000
851.000	4070.000	1260.000
852.000	4070.200	1060.000
853.000	4070.400	1380.000
854.000	4070.600	1190.000
855.000	4070.800	1250.000
856.000	4071.000	1310.000
857.000	4071.200	1330.000
858.000	4071.400	1350.000
859.000	4071.600	1530.000
860.000	4071.800	1230.000
861.000	4072.000	1120.000
862.000	4072.200	1050.000
863.000	4072.400	1440.000
864.000	4072.600	1260.000
865.000	4072.800	1040.000
866.000	4073.000	1110.000
867.000	4073.200	1290.000
868.000	4073.400	1570.000
869.000	4073.600	1710.000
870.000	4073.800	1400.000
871.000	4074.000	1440.000
872.000	4074.200	1130.000
873.000	4074.400	1060.000
874.000	4074.600	1140.000
875.000	4074.800	1220.000
876.000	4075.000	1590.000
877.000	4075.200	2140.000
878.000	4075.400	2910.000
879.000	4075.600	2220.000
880.000	4075.800	1380.000
881.000	4076.000	1110.000
882.000	4076.200	1300.000
883.000	4076.400	1300.000
884.000	4076.600	1380.000
885.000	4076.800	1310.000
886.000	4077.000	1130.000
887.000	4077.200	1100.000
888.000	4077.400	1080.000
889.000	4077.600	1470.000
890.000	4077.800	1750.000
891.000	4078.000	1440.000
892.000	4078.200	1440.000
893.000	4078.400	1260.000
894.000	4078.600	1410.000
895.000	4078.800	1270.000
896.000	4079.000	1310.000
897.000	4079.200	1410.000
898.000	4079.400	2220.000
899.000	4079.600	1670.000
900.000	4079.800	1580.000
901.000	4080.000	1600.000
902.000	4080.200	1650.000
903.000	4080.400	1910.000
904.000	4080.600	1720.000
905.000	4080.800	1230.000
906.000	4081.000	1360.000
907.000	4081.200	1340.000
908.000	4081.400	1320.000
909.000	4081.600	1320.000
910.000	4081.800	1340.000
911.000	4082.000	1400.000
912.000	4082.200	1360.000
913.000	4082.400	1100.000
914.000	4082.600	930.000
915.000	4082.800	1040.000
916.000	4083.000	1300.000
917.000	4083.200	1010.000
918.000	4083.400	1300.000
919.000	4083.600	1310.000
920.000	4083.800	1310.000
921.000	4084.000	1540.000
922.000	4084.200	1400.000
923.000	4084.400	2070.000
924.000	4084.600	3120.000
925.000	4084.800	3900.000
926.000	4085.000	2440.000
927.000	4085.200	1280.000
928.000	4085.400	1140.000
929.000	4085.600	1200.000
930.000	4085.800	1760.000
931.000	4086.000	2080.000
932.000	4086.200	2240.000
933.000	4086.400	2080.000
934.000	4086.600	1800.000
935.000	4086.800	1420.000
936.000	4087.000	1490.000
937.000	4087.200	1680.000
938.000	4087.400	1240.000
939.000	4087.600	1430.000
940.000	4087.800	1310.000
941.000	4088.000	1500.000
942.000	4088.200	1070.000
943.000	4088.400	1320.000
944.000	4088.600	1740.000
945.000	4088.800	1880.000
946.000	4089.000	1560.000
947.000	4089.200	1170.000
948.000	4089.400	1570.000
949.000	4089.600	2300.000
950.000	4089.800	2360.000
951.000	4090.000	1820.000
952.000	4090.200	1320.000
953.000	4090.400	1550.000
954.000	4090.600	1760.000
955.000	4090.800	1530.000
956.000	4091.000	1370.000
957.000	4091.200	1390.000
958.000	4091.400	1520.000
959.000	4091.600	1840.000
960.000	4091.800	2040.000
961.000	4092.000	2740.000
962.000	4092.200	2920.000
963.000	4092.400	1540.000
964.000	4092.600	1080.000
965.000	4092.800	1060.000
966.000	4093.000	1210.000
967.000	4093.200	1570.000
968.000	4093.400	1720.000
969.000	4093.600	1740.000
970.000	4093.800	1960.000
971.000	4094.000	1570.000
972.000	4094.200	2030.000
973.000	4094.400	1920.000
974.000	4094.600	1390.000
975.000	4094.800	1190.000
976.000	4095.000	1310.000
977.000	4095.200	1320.000
978.000	4095.400	1610.000
979.000	4095.600	1930.000
980.000	4095.800	1910.000
981.000	4096.000	1370.000
982.000	4096.200	1240.000
983.000	4096.400	1260.000
984.000	4096.600	1210.000
985.000	4096.800	2020.000
986.000	4097.000	1840.000
987.000	4097.200	1780.000
988.000	4097.400	1640.000
989.000	4097.600	1460.000
990.000	4097.800	1470.000
991.000	4098.000	1400.000
992.000	4098.200	1260.000
993.000	4098.400	1450.000
994.000	4098.600	1780.000
995.000	4098.800	1970.000
996.000	4099.000	1910.000
997.000	4099.200	1950.000
998.000	4099.400	1540.000
999.000	4099.600	1190.000
1000.000	4099.800	1260.000
1001.000	4100.000	1150.000
1002.000	4100.200	1050.000
1003.000	4100.400	1540.000
1004.000	4100.600	1450.000
1005.000	4100.800	1510.000
1006.000	4101.000	1700.000
1007.000	4101.200	1630.000
1008.000	4101.400	1920.000
1009.000	4101.600	1890.000
1010.000	4101.800	1740.000
1011.000	4102.000	1670.000
1012.000	4102.200	1660.000
1013.000	4102.400	1260.000
1014.000	4102.600	1630.000
1015.000	4102.800	2360.000
1016.000	4103.000	2810.000
1017.000	4103.200	2500.000
1018.000	4103.400	1660.000
1019.000	4103.600	1600.000
1020.000	4103.800	1720.000
1021.000	4104.000	1770.000
1022.000	4104.200	1220.000
1023.000	4104.400	1230.000
1024.000	4104.600	1260.000
1025.000	4104.800	1460.000
1026.000	4105.000	1390.000
1027.000	4105.200	1370.000
1028.000	4105.400	1330.000
1029.000	4105.600	1800.000
1030.000	4105.800	1890.000
1031.000	4106.000	1850.000
1032.000	4106.200	1980.000
1033.000	4106.400	1460.000
1034.000	4106.600	1550.000
1035.000	4106.800	1510.000
1036.000	4107.000	1230.000
1037.000	4107.200	1500.000
1038.000	4107.400	1370.000
1039.000	4107.600	1000.000
1040.000	4107.800	1440.000
1041.000	4108.000	1560.000
1042.000	4108.200	1750.000
1043.000	4108.400	2590.000
1044.000	4108.600	2780.000
1045.000	4108.800	1870.000
1046.000	4109.000	1230.000
1047.000	4109.200	1520.000
1048.000	4109.400	1460.000
1049.000	4109.600	1130.000
1050.000	4109.800	1140.000
1051.000	4110.000	1050.000
1052.000	4110.200	1040.000
1053.000	4110.400	1330.000
1054.000	4110.600	1090.000
1055.000	4110.800	1330.000
1056.000	4111.000	1760.000
1057.000	4111.200	2060.000
1058.000	4111.400	1810.000
1059.000	4111.600	1670.000
1060.000	4111.800	1320.000
1061.000	4112.000	1790.000
1062.000	4112.200	2060.000
1063.000	4112.400	4040.000
1064.000	4112.600	3510.000
1065.000	4112.800	2250.000
1066.000	4113.000	2490.000
1067.000	4113.200	2880.000
1068.000	4113.400	2060.000
1069.000	4113.600	1210.000
1070.000	4113.800	1380.000
1071.000	4114.000	1140.000
1072.000	4114.200	1270.000
1073.000	4114.400	1760.000
1074.000	4114.600	2160.000
1075.000	4114.800	3240.000
1076.000	4115.000	4600.000
1077.000	4115.200	3840.000
1078.000	4115.400	1690.000
1079.000	4115.600	1560.000
1080.000	4115.800	2120.000
1081.000	4116.000	3420.000
1082.000	4116.200	4280.000
1083.000	4116.400	4850.000
1084.000	4116.600	3470.000
1085.000	4116.800	2030.000
1086.000	4117.000	1220.000
1087.000	4117.200	1330.000
1088.000	4117.400	1050.000
1089.000	4117.600	1000.000
1090.000	4117.800	1360.000
1091.000	4118.000	1090.000
1092.000	4118.200	1480.000
1093.000	4118.400	1290.000
1094.000	4118.600	1310.000
1095.000	4118.800	1160.000
1096.000	4119.000	1370.000
1097.000	4119.200	1640.000
1098.000	4119.400	2760.000
1099.000	4119.600	2990.000
1100.000	4119.800	1940.000
1101.000	4120.000	1350.000
1102.000	4120.200	1410.000
1103.000	4120.400	1570.000
1104.000	4120.600	1540.000
1105.000	4120.800	1420.000
1106.000	4121.000	1310.000
1107.000	4121.200	1270.000
1108.000	4121.400	1420.000
1109.000	4121.600	1830.000
1110.000	4121.800	2320.000
1111.000	4122.000	1850.000
1112.000	4122.200	1460.000
1113.000	4122.400	1260.000
1114.000	4122.600	1850.000
1115.000	4122.800	1910.000
1116.000	4123.000	1720.000
1117.000	4123.200	1210.000
1118.000	4123.400	1320.000
1119.000	4123.600	1360.000
1120.000	4123.800	1340.000
1121.000	4124.000	1070.000
1122.000	4124.200	1220.000
1123.000	4124.400	1210.000
1124.000	4124.600	1410.000
1125.000	4124.800	1300.000
1126.000	4125.000	1310.000
1127.000	4125.200	1420.000
1128.000	4125.400	1340.000
1129.000	4125.600	1260.000
1130.000	4125.800	1400.000
1131.000	4126.000	1200.000
1132.000	4126.200	1340.000
1133.000	4126.400	1120.000
1134.000	4126.600	1300.000
1135.000	4126.800	1040.000
1136.000	4127.000	1120.000
1137.000	4127.200	1230.000
1138.000	4127.400	1450.000
1139.000	4127.600	1740.000
1140.000	4127.800	1570.000
1141.000	4128.000	1380.000
1142.000	4128.200	1170.000
1143.000	4128.400	1390.000
1144.000	4128.600	1450.000
1145.000	4128.800	1900.000
1146.000	4129.000	2210.000
1147.000	4129.200	2260.000
1148.000	4129.400	2020.000
1149.000	4129.600	1760.000
1150.000	4129.800	1740.000
1151.000	4130.000	1410.000
1152.000	4130.200	1220.000
1153.000	4130.400	1220.000
1154.000	4130.600	1550.000
1155.000	4130.800	1920.000
1156.000	4131.000	1900.000
1157.000	4131.200	2420.000
1158.000	4131.400	2350.000
1159.000	4131.600	1720.000
1160.000	4131.800	1100.000
1161.000	4132.000	1410.000
1162.000	4132.200	1340.000
1163.000	4132.400	1320.000
1164.000	4132.600	1690.000
1165.000	4132.800	1920.000
1166.000	4133.000	1430.000
1167.000	4133.200	1150.000
1168.000	4133.400	1290.000
1169.000	4133.600	1520.000
1170.000	4133.800	1470.000
1171.000	4134.000	1340.000
1172.000	4134.200	1520.000
1173.000	4134.400	1440.000
1174.000	4134.600	1360.000
1175.000	4134.800	1450.000
1176.000	4135.000	1400.000
1177.000	4135.200	1100.000
1178.000	4135.400	1080.000
1179.000	4135.600	1160.000
1180.000	4135.800	1460.000
1181.000	4136.000	1650.000
1182.000	4136.200	1440.000
1183.000	4136.400	1230.000
1184.000	4136.600	1400.000
1185.000	4136.800	1280.000
1186.000	4137.000	1320.000
1187.000	4137.200	1380.000
1188.000	4137.400	1600.000
1189.000	4137.600	1180.000
1190.000	4137.800	1250.000
1191.000	4138.000	1290.000
1192.000	4138.200	1340.000
1193.000	4138.400	1480.000
1194.000	4138.600	1370.000
1195.000	4138.800	1430.000
1196.000	4139.000	1420.000
1197.000	4139.200	1360.000
1198.000	4139.400	1260.000
1199.000	4139.600	1040.000
1200.000	4139.800	1120.000
1201.000	4140.000	1460.000
1202.000	4140.200	1200.000
1203.000	4140.400	1270.000
1204.000	4140.600	1020.000
1205.000	4140.800	1230.000
1206.000	4141.000	1310.000
1207.000	4141.200	1030.000
1208.000	4141.400	1260.000
1209.000	4141.600	1080.000
1210.000	4141.800	1550.000
1211.000	4142.000	1540.000
1212.000	4142.200	1570.000
1213.000	4142.400	1430.000
1214.000	4142.600	1190.000
1215.000	4142.800	1130.000
1216.000	4143.000	1070.000
1217.000	4143.200	1250.000
1218.000	4143.400	1240.000
1219.000	4143.600	1440.000
1220.000	4143.800	1210.000
1221.000	4144.000	1260.000
1222.000	4144.200	1310.000
1223.000	4144.400	1260.000
1224.000	4144.600	1210.000
1225.000	4144.800	1320.000
1226.000	4145.000	1070.000
1227.000	4145.200	1090.000
1228.000	4145.400	1040.000
1229.000	4145.600	1270.000
1230.000	4145.800	1660.000
1231.000	4146.000	1280.000
1232.000	4146.200	1150.000
1233.000	4146.400	1050.000
1234.000	4146.600	1420.000
1235.000	4146.800	1180.000
1236.000	4147.000	1050.000
1237.000	4147.200	1360.000
1238.000	4147.400	1420.000
1239.000	4147.600	1280.000
1240.000	4147.800	1010.000
1241.000	4148.000	1120.000
1242.000	4148.200	1140.000
1243.000	4148.400	1250.000
1244.000	4148.600	1290.000
1245.000	4148.800	1370.000
1246.000	4149.000	1510.000
1247.000	4149.200	1930.000
1248.000	4149.400	1720.000
1249.000	4149.600	1650.000
1250.000	4149.800	1090.000
1251.000	4150.000	1080.000
1252.000	4150.200	1250.000
1253.000	4150.400	1400.000
1254.000	4150.600	1200.000
1255.000	4150.800	1350.000
1256.000	4151.000	1260.000
1257.000	4151.200	1340.000
1258.000	4151.400	1200.000
1259.000	4151.600	1200.000
1260.000	4151.800	1220.000
1261.000	4152.000	1410.000
1262.000	4152.200	1240.000
1263.000	4152.400	1020.000
1264.000	4152.600	1200.000
1265.000	4152.800	1090.000
1266.000	4153.000	1320.000
1267.000	4153.200	1180.000
1268.000	4153.400	1170.000
1269.000	4153.600	1410.000
1270.000	4153.800	1260.000
1271.000	4154.000	1120.000
1272.000	4154.200	1160.000
1273.000	4154.400	2610.000
1274.000	4154.600	5280.000
1275.000	4154.800	5560.000
1276.000	4155.000	3900.000
1277.000	4155.200	6060.000
1278.000	4155.400	7820.000
1279.000	4155.600	9180.000
1280.000	4155.800	6940.000
1281.000	4156.000	1790.000
1282.000	4156.200	1330.000
1283.000	4156.400	1070.000
1284.000	4156.600	1150.000
1285.000	4156.800	1570.000
1286.000	4157.000	1210.000
1287.000	4157.200	1130.000
1288.000	4157.400	1050.000
1289.000	4157.600	990.000
1290.000	4157.800	1450.000
1291.000	4158.000	1070.000
1292.000	4158.200	1220.000
1293.000	4158.400	1150.000
1294.000	4158.600	1170.000
1295.000	4158.800	1090.000
1296.000	4159.000	1180.000
1297.000	4159.200	1060.000
1298.000	4159.400	940.000
1299.000	4159.600	1100.000
1300.000	4159.800	1280.000
1301.000	4160.000	1230.000
1302.000	4160.200	1320.000
1303.000	4160.400	1200.000
1304.000	4160.600	1120.000
1305.000	4160.800	1180.000
1306.000	4161.000	1320.000
1307.000	4161.200	1670.000
1308.000	4161.400	1230.000
1309.000	4161.600	1550.000
1310.000	4161.800	1960.000
1311.000	4162.000	1830.000
1312.000	4162.200	1330.000
1313.000	4162.400	1000.000
1314.000	4162.600	1210.000
1315.000	4162.800	1150.000
1316.000	4163.000	1150.000
1317.000	4163.200	1320.000
1318.000	4163.400	1420.000
1319.000	4163.600	1370.000
1320.000	4163.800	1530.000
1321.000	4164.000	1460.000
1322.000	4164.200	1380.000
1323.000	4164.400	1190.000
1324.000	4164.600	1370.000
1325.000	4164.800	1420.000
1326.000	4165.000	1440.000
1327.000	4165.200	1720.000
1328.000	4165.400	1530.000
1329.000	4165.600	1170.000
1330.000	4165.800	1130.000
1331.000	4166.000	1460.000
1332.000	4166.200	1580.000
1333.000	4166.400	1190.000
1334.000	4166.600	1080.000
1335.000	4166.800	1410.000
1336.000	4167.000	1380.000
1337.000	4167.200	1310.000
1338.000	4167.400	1690.000
1339.000	4167.600	1740.000
1340.000	4167.800	1700.000
1341.000	4168.000	1250.000
1342.000	4168.200	1390.000
1343.000	4168.400	1190.000
1344.000	4168.600	1410.000
1345.000	4168.800	1380.000
1346.000	4169.000	1480.000
1347.000	4169.200	1580.000
1348.000	4169.400	1500.000
1349.000	4169.600	1470.000
1350.000	4169.800	1460.000
1351.000	4170.000	1130.000
1352.000	4170.200	1180.000
1353.000	4170.400	1190.000
1354.000	4170.600	1790.000
1355.000	4170.800	1820.000
1356.000	4171.000	1830.000
1357.000	4171.200	1700.000
1358.000	4171.400	1410.000
1359.000	4171.600	1180.000
1360.000	4171.800	1300.000
1361.000	4172.000	1140.000
1362.000	4172.200	1360.000
1363.000	4172.400	1300.000
1364.000	4172.600	1540.000
1365.000	4172.800	1430.000
1366.000	4173.000	1560.000
1367.000	4173.200	1310.000
1368.000	4173.400	1540.000
1369.000	4173.600	1560.000
1370.000	4173.800	1340.000
1371.000	4174.000	1210.000
1372.000	4174.200	1410.000
1373.000	4174.400	1100.000
1374.000	4174.600	1420.000
1375.000	4174.800	1410.000
1376.000	4175.000	1190.000
1377.000	4175.200	1160.000
1378.000	4175.400	1080.000
1379.000	4175.600	1370.000
1380.000	4175.800	1590.000
1381.000	4176.000	1770.000
1382.000	4176.200	1830.000
1383.000	4176.400	1590.000
1384.000	4176.600	1330.000
1385.000	4176.800	1660.000
1386.000	4177.000	2400.000
1387.000	4177.200	2770.000
1388.000	4177.400	1700.000
1389.000	4177.600	1510.000
1390.000	4177.800	1460.000
1391.000	4178.000	1280.000
1392.000	4178.200	1270.000
1393.000	4178.400	1340.000
1394.000	4178.600	1170.000
1395.000	4178.800	1330.000
1396.000	4179.000	1170.000
1397.000	4179.200	1280.000
1398.000	4179.400	1280.000
1399.000	4179.600	1590.000
1400.000	4179.800	1400.000
1401.000	4180.000	2230.000
1402.000	4180.200	2000.000
1403.000	4180.400	1590.000
1404.000	4180.600	1600.000
1405.000	4180.800	1300.000
1406.000	4181.000	1200.000
1407.000	4181.200	1510.000
1408.000	4181.400	1280.000
1409.000	4181.600	1480.000
1410.000	4181.800	1760.000
1411.000	4182.000	1760.000
1412.000	4182.200	1640.000
1413.000	4182.400	1810.000
1414.000	4182.600	1980.000
1415.000	4182.800	2060.000
1416.000	4183.000	1750.000
1417.000	4183.200	1840.000
1418.000	4183.400	1590.000
1419.000	4183.600	980.000
1420.000	4183.800	990.000
1421.000	4184.000	990.000
1422.000	4184.200	1300.000
1423.000	4184.400	1530.000
1424.000	4184.600	1590.000
1425.000	4184.800	1420.000
1426.000	4185.000	1280.000
1427.000	4185.200	1980.000
1428.000	4185.400	2720.000
1429.000	4185.600	3000.000
1430.000	4185.800	2080.000
1431.000	4186.000	840.000
1432.000	4186.200	1230.000
1433.000	4186.400	1660.000
1434.000	4186.600	1640.000
1435.000	4186.800	1570.000
1436.000	4187.000	1420.000
1437.000	4187.200	1430.000
1438.000	4187.400	1160.000
1439.000	4187.600	1220.000
1440.000	4187.800	1740.000
1441.000	4188.000	2050.000
1442.000	4188.200	2730.000
1443.000	4188.400	2040.000
1444.000	4188.600	1650.000
1445.000	4188.800	1560.000
1446.000	4189.000	2110.000
1447.000	4189.200	1840.000
1448.000	4189.400	1320.000
1449.000	4189.600	1470.000
1450.000	4189.800	1840.000
1451.000	4190.000	2330.000
1452.000	4190.200	1720.000
1453.000	4190.400	1140.000
1454.000	4190.600	1230.000
1455.000	4190.800	1190.000
1456.000	4191.000	1180.000
1457.000	4191.200	1130.000
1458.000	4191.400	1390.000
1459.000	4191.600	1680.000
1460.000	4191.800	1690.000
1461.000	4192.000	1320.000
1462.000	4192.200	1280.000
1463.000	4192.400	1660.000
1464.000	4192.600	1430.000
1465.000	4192.800	1200.000
1466.000	4193.000	1210.000
1467.000	4193.200	1360.000
1468.000	4193.400	1520.000
1469.000	4193.600	1630.000
1470.000	4193.800	1410.000
1471.000	4194.000	1620.000
1472.000	4194.200	2100.000
1473.000	4194.400	2160.000
1474.000	4194.600	1740.000
1475.000	4194.800	1550.000
1476.000	4195.000	1340.000
1477.000	4195.200	1260.000
1478.000	4195.400	1780.000
1479.000	4195.600	1800.000
1480.000	4195.800	1500.000
1481.000	4196.000	1730.000
1482.000	4196.200	1390.000
1483.000	4196.400	1540.000
1484.000	4196.600	1420.000
1485.000	4196.800	1210.000
1486.000	4197.000	1310.000
1487.000	4197.200	1730.000
1488.000	4197.400	1710.000
1489.000	4197.600	1390.000
1490.000	4197.800	1330.000
1491.000	4198.000	1260.000
1492.000	4198.200	1170.000
1493.000	4198.400	1020.000
1494.000	4198.600	1100.000
1495.000	4198.800	1490.000
1496.000	4199.000	1220.000
1497.000	4199.200	1200.000
1498.000	4199.400	1200.000
1499.000	4199.600	1060.000
1500.000	4199.800	1100.000
1501.000	4200.000	1270.000
1502.000	4200.200	1270.000
1503.000	4200.400	1070.000
1504.000	4200.600	1200.000
1505.000	4200.800	1320.000
1506.000	4201.000	1490.000
1507.000	4201.200	1260.000
1508.000	4201.400	1060.000
1509.000	4201.600	1100.000
1510.000	4201.800	1180.000
1511.000	4202.000	1230.000
1512.000	4202.200	1220.000
1513.000	4202.400	1460.000
1514.000	4202.600	1400.000
1515.000	4202.800	1440.000
1516.000	4203.000	1460.000
1517.000	4203.200	1290.000
1518.000	4203.400	1140.000
1519.000	4203.600	1010.000
1520.000	4203.800	1170.000
1521.000	4204.000	1380.000
1522.000	4204.200	1870.000
1523.000	4204.400	1820.000
1524.000	4204.600	1620.000
1525.000	4204.800	1320.000
1526.000	4205.000	1130.000
1527.000	4205.200	1480.000
1528.000	4205.400	1790.000
1529.000	4205.600	1780.000
1530.000	4205.800	1590.000
1531.000	4206.000	1420.000
1532.000	4206.200	1310.000
1533.000	4206.400	1400.000
1534.000	4206.600	1310.000
1535.000	4206.800	1280.000
1536.000	4207.000	1410.000
1537.000	4207.200	1220.000
1538.000	4207.400	1290.000
1539.000	4207.600	1530.000
1540.000	4207.800	1460.000
1541.000	4208.000	1520.000
1542.000	4208.200	1400.000
1543.000	4208.400	1470.000
1544.000	4208.600	1290.000
1545.000	4208.800	1360.000
1546.000	4209.000	1370.000
1547.000	4209.200	1480.000
1548.000	4209.400	1270.000
1549.000	4209.600	1470.000
1550.000	4209.800	1270.000
1551.000	4210.000	1340.000
1552.000	4210.200	1350.000
1553.000	4210.400	1320.000
1554.000	4210.600	1560.000
1555.000	4210.800	1350.000
1556.000	4211.000	1320.000
1557.000	4211.200	1220.000
1558.000	4211.400	1200.000
1559.000	4211.600	1300.000
1560.000	4211.800	1340.000
1561.000	4212.000	1510.000
1562.000	4212.200	1370.000
1563.000	4212.400	1620.000
1564.000	4212.600	1680.000
1565.000	4212.800	1590.000
1566.000	4213.000	1240.000
1567.000	4213.200	1520.000
1568.000	4213.400	1520.000
1569.000	4213.600	1490.000
1570.000	4213.800	1320.000
1571.000	4214.000	1410.000
1572.000	4214.200	1230.000
1573.000	4214.400	1310.000
1574.000	4214.600	1670.000
1575.000	4214.800	1000.000
1576.000	4215.000	1130.000
1577.000	4215.200	1150.000
1578.000	4215.400	1350.000
1579.000	4215.600	1260.000
1580.000	4215.800	1290.000
1581.000	4216.000	1460.000
1582.000	4216.200	1270.000
1583.000	4216.400	1090.000
1584.000	4216.600	1430.000
1585.000	4216.800	1300.000
1586.000	4217.000	1330.000
1587.000	4217.200	1270.000
1588.000	4217.400	1230.000
1589.000	4217.600	1340.000
1590.000	4217.800	1170.000
1591.000	4218.000	2430.000
1592.000	4218.200	4150.000
1593.000	4218.400	7720.000
1594.000	4218.600	6600.000
1595.000	4218.800	2440.000
1596.000	4219.000	1530.000
1597.000	4219.200	2650.000
1598.000	4219.400	4350.000
1599.000	4219.600	7270.000
1600.000	4219.800	5460.000
1601.000	4220.000	1990.000
1602.000	4220.200	1370.000
1603.000	4220.400	1460.000
1604.000	4220.600	1360.000
1605.000	4220.800	1300.000
1606.000	4221.000	1460.000
1607.000	4221.200	1340.000
1608.000	4221.400	1200.000
1609.000	4221.600	1250.000
1610.000	4221.800	1210.000
1611.000	4222.000	1160.000
1612.000	4222.200	1190.000
1613.000	4222.400	1220.000
1614.000	4222.600	1240.000
1615.000	4222.800	1270.000
1616.000	4223.000	1180.000
1617.000	4223.200	1090.000
1618.000	4223.400	1170.000
1619.000	4223.600	1290.000
1620.000	4223.800	1450.000
1621.000	4224.000	1280.000
1622.000	4224.200	1230.000
1623.000	4224.400	1350.000
1624.000	4224.600	1220.000
1625.000	4224.800	1170.000
1626.000	4225.000	1340.000
1627.000	4225.200	1330.000
1628.000	4225.400	1300.000
1629.000	4225.600	1460.000
1630.000	4225.800	1200.000
1631.000	4226.000	1270.000
1632.000	4226.200	1270.000
1633.000	4226.400	1420.000
1634.000	4226.600	1460.000
1635.000	4226.800	1290.000
1636.000	4227.000	1360.000
1637.000	4227.200	1810.000
1638.000	4227.400	1530.000
1639.000	4227.600	1500.000
1640.000	4227.800	1250.000
1641.000	4228.000	1320.000
1642.000	4228.200	1720.000
1643.000	4228.400	1510.000
1644.000	4228.600	1290.000
1645.000	4228.800	1070.000
1646.000	4229.000	1610.000
1647.000	4229.200	1380.000
1648.000	4229.400	1340.000
1649.000	4229.600	1190.000
1650.000	4229.800	1270.000
1651.000	4230.000	1410.000
1652.000	4230.200	1580.000
1653.000	4230.400	1240.000
1654.000	4230.600	1300.000
1655.000	4230.800	1370.000
1656.000	4231.000	1460.000
1657.000	4231.200	1890.000
1658.000	4231.400	1350.000
1659.000	4231.600	1500.000
1660.000	4231.800	1730.000
1661.000	4232.000	1770.000
1662.000	4232.200	1430.000
1663.000	4232.400	1250.000
1664.000	4232.600	1480.000
1665.000	4232.800	1340.000
1666.000	4233.000	1430.000
1667.000	4233.200	1580.000
1668.000	4233.400	1830.000
1669.000	4233.600	1510.000
1670.000	4233.800	1150.000
1671.000	4234.000	1470.000
1672.000	4234.200	1230.000
1673.000	4234.400	1180.000
1674.000	4234.600	1610.000
1675.000	4234.800	1400.000
1676.000	4235.000	1430.000
1677.000	4235.200	1350.000
1678.000	4235.400	1570.000
1679.000	4235.600	1690.000
1680.000	4235.800	1040.000
1681.000	4236.000	1340.000
1682.000	4236.200	1570.000
1683.000	4236.400	1290.000
1684.000	4236.600	2000.000
1685.000	4236.800	3320.000
1686.000	4237.000	8490.000
1687.000	4237.200	10310.000
1688.000	4237.400	6310.000
1689.000	4237.600	2080.000
1690.000	4237.800	1300.000
1691.000	4238.000	1160.000
1692.000	4238.200	1350.000
1693.000	4238.400	1220.000
1694.000	4238.600	1450.000
1695.000	4238.800	1400.000
1696.000	4239.000	1340.000
1697.000	4239.200	1400.000
1698.000	4239.400	1350.000
1699.000	4239.600	1210.000
1700.000	4239.800	1060.000
1701.000	4240.000	1200.000
1702.000	4240.200	1030.000
1703.000	4240.400	1180.000
1704.000	4240.600	1160.000
1705.000	4240.800	1470.000
1706.000	4241.000	1260.000
1707.000	4241.200	1200.000
1708.000	4241.400	1280.000
1709.000	4241.600	1400.000
1710.000	4241.800	1580.000
1711.000	4242.000	1380.000
1712.000	4242.200	970.000
1713.000	4242.400	1160.000
1714.000	4242.600	1260.000
1715.000	4242.800	1390.000
1716.000	4243.000	1710.000
1717.000	4243.200	1820.000
1718.000	4243.400	1710.000
1719.000	4243.600	1430.000
1720.000	4243.800	1450.000
1721.000	4244.000	1340.000
1722.000	4244.200	2010.000
1723.000	4244.400	2330.000
1724.000	4244.600	1900.000
1725.000	4244.800	1410.000
1726.000	4245.000	1670.000
1727.000	4245.200	2000.000
1728.000	4245.400	1820.000
1729.000	4245.600	1620.000
1730.000	4245.800	1990.000
1731.000	4246.000	2200.000
1732.000	4246.200	2130.000
1733.000	4246.400	1450.000
1734.000	4246.600	1320.000
1735.000	4246.800	1130.000
1736.000	4247.000	1160.000
1737.000	4247.200	1410.000
1738.000	4247.400	1430.000
1739.000	4247.600	1100.000
1740.000	4247.800	1290.000
1741.000	4248.000	1330.000
1742.000	4248.200	1240.000
1743.000	4248.400	1370.000
1744.000	4248.600	1600.000
1745.000	4248.800	2140.000
1746.000	4249.000	1580.000
1747.000	4249.200	1560.000
1748.000	4249.400	1620.000
1749.000	4249.600	1220.000
1750.000	4249.800	1340.000
1751.000	4250.000	1120.000
1752.000	4250.200	1140.000
1753.000	4250.400	1180.000
1754.000	4250.600	1160.000
1755.000	4250.800	1330.000
1756.000	4251.000	1360.000
1757.000	4251.200	1590.000
1758.000	4251.400	1530.000
1759.000	4251.600	1260.000
1760.000	4251.800	1280.000
1761.000	4252.000	1290.000
1762.000	4252.200	1400.000
1763.000	4252.400	1350.000
1764.000	4252.600	1330.000
1765.000	4252.800	1180.000
1766.000	4253.000	1260.000
1767.000	4253.200	1510.000
1768.000	4253.400	1580.000
1769.000	4253.600	1620.000
1770.000	4253.800	1470.000
1771.000	4254.000	1230.000
1772.000	4254.200	1190.000
1773.000	4254.400	1300.000
1774.000	4254.600	1340.000
1775.000	4254.800	1250.000
1776.000	4255.000	1210.000
1777.000	4255.200	1350.000
1778.000	4255.400	1410.000
1779.000	4255.600	1960.000
1780.000	4255.800	2040.000
1781.000	4256.000	1610.000
1782.000	4256.200	1460.000
1783.000	4256.400	1370.000
1784.000	4256.600	1300.000
1785.000	4256.800	1500.000
1786.000	4257.000	1510.000
1787.000	4257.200	1260.000
1788.000	4257.400	1510.000
1789.000	4257.600	1100.000
1790.000	4257.800	1340.000
1791.000	4258.000	1590.000
1792.000	4258.200	1750.000
1793.000	4258.400	1710.000
1794.000	4258.600	1720.000
1795.000	4258.800	1640.000
1796.000	4259.000	1380.000
1797.000	4259.200	1540.000
1798.000	4259.400	1300.000
1799.000	4259.600	1450.000
1800.000	4259.800	1350.000
1801.000	4260.000	1170.000
1802.000	4260.200	1250.000
1803.000	4260.400	1320.000
1804.000	4260.600	1220.000
1805.000	4260.800	1590.000
1806.000	4261.000	2120.000
1807.000	4261.200	1560.000
1808.000	4261.400	1270.000
1809.000	4261.600	1240.000
1810.000	4261.800	1570.000
1811.000	4262.000	1640.000
1812.000	4262.200	1750.000
1813.000	4262.400	1540.000
1814.000	4262.600	1600.000
1815.000	4262.800	1700.000
1816.000	4263.000	1420.000
1817.000	4263.200	1500.000
1818.000	4263.400	2010.000
1819.000	4263.600	1880.000
1820.000	4263.800	1880.000
1821.000	4264.000	1710.000
1822.000	4264.200	1440.000
1823.000	4264.400	1410.000
1824.000	4264.600	1660.000
1825.000	4264.800	2010.000
1826.000	4265.000	2070.000
1827.000	4265.200	1900.000
1828.000	4265.400	1820.000
1829.000	4265.600	1300.000
1830.000	4265.800	1250.000
1831.000	4266.000	1480.000
1832.000	4266.200	1310.000
1833.000	4266.400	1170.000
1834.000	4266.600	1520.000
1835.000	4266.800	1620.000
1836.000	4267.000	1380.000
1837.000	4267.200	1260.000
1838.000	4267.400	1440.000
1839.000	4267.600	1680.000
1840.000	4267.800	1690.000
1841.000	4268.000	2030.000
1842.000	4268.200	1640.000
1843.000	4268.400	1730.000
1844.000	4268.600	1180.000
1845.000	4268.800	1120.000
1846.000	4269.000	1510.000
1847.000	4269.200	1490.000
1848.000	4269.400	1400.000
1849.000	4269.600	1440.000
1850.000	4269.800	1750.000
1851.000	4270.000	1940.000
1852.000	4270.200	1700.000
1853.000	4270.400	1380.000
1854.000	4270.600	1510.000
1855.000	4270.800	2100.000
1856.000	4271.000	2330.000
1857.000	4271.200	2010.000
1858.000	4271.400	1740.000
1859.000	4271.600	1230.000
1860.000	4271.800	1090.000
1861.000	4272.000	1050.000
1862.000	4272.200	1240.000
1863.000	4272.400	1080.000
1864.000	4272.600	1240.000
1865.000	4272.800	1470.000
1866.000	4273.000	1760.000
1867.000	4273.200	1910.000
1868.000	4273.400	1870.000
1869.000	4273.600	1360.000
1870.000	4273.800	1390.000
1871.000	4274.000	1350.000
1872.000	4274.200	1390.000
1873.000	4274.400	1360.000
1874.000	4274.600	1240.000
1875.000	4274.800	1290.000
1876.000	4275.000	1360.000
1877.000	4275.200	1200.000
1878.000	4275.400	1190.000
1879.000	4275.600	1360.000
1880.000	4275.800	1320.000
1881.000	4276.000	1490.000
1882.000	4276.200	1540.000
1883.000	4276.400	1160.000
1884.000	4276.600	1510.000
1885.000	4276.800	1610.000
1886.000	4277.000	1420.000
1887.000	4277.200	1460.000
1888.000	4277.400	1320.000
1889.000	4277.600	1400.000
1890.000	4277.800	1530.000
1891.000	4278.000	1890.000
1892.000	4278.200	1490.000
1893.000	4278.400	1470.000
1894.000	4278.600	1770.000
1895.000	4278.800	1600.000
1896.000	4279.000	1510.000
1897.000	4279.200	1240.000
1898.000	4279.400	1390.000
1899.000	4279.600	1400.000
1900.000	4279.800	1700.000
1901.000	4280.000	1990.000
1902.000	4280.200	1330.000
1903.000	4280.400	1480.000
1904.000	4280.600	1300.000
1905.000	4280.800	1330.000
1906.000	4281.000	1300.000
1907.000	4281.200	1350.000
1908.000	4281.400	1630.000
1909.000	4281.600	1340.000
1910.000	4281.800	1430.000
1911.000	4282.000	1510.000
1912.000	4282.200	1430.000
1913.000	4282.400	1570.000
1914.000	4282.600	1300.000
1915.000	4282.800	1440.000
1916.000	4283.000	1450.000
1917.000	4283.200	1440.000
1918.000	4283.400	1620.000
1919.000	4283.600	1290.000
1920.000	4283.800	1180.000
1921.000	4284.000	1090.000
1922.000	4284.200	1140.000
1923.000	4284.400	1390.000
1924.000	4284.600	1640.000
1925.000	4284.800	1450.000
1926.000	4285.000	1270.000
1927.000	4285.200	1280.000
1928.000	4285.400	1180.000
1929.000	4285.600	1400.000
1930.000	4285.800	1510.000
1931.000	4286.000	1500.000
1932.000	4286.200	1370.000
1933.000	4286.400	1160.000
1934.000	4286.600	1040.000
1935.000	4286.800	1250.000
1936.000	4287.000	1260.000
1937.000	4287.200	1170.000
1938.000	4287.400	1080.000
1939.000	4287.600	1090.000
1940.000	4287.800	1640.000
1941.000	4288.000	1520.000
1942.000	4288.200	1630.000
1943.000	4288.400	1880.000
1944.000	4288.600	2290.000
1945.000	4288.800	1730.000
1946.000	4289.000	1740.000
1947.000	4289.200	1620.000
1948.000	4289.400	1530.000
1949.000	4289.600	1460.000
1950.000	4289.800	1420.000
1951.000	4290.000	1730.000
1952.000	4290.200	2180.000
1953.000	4290.400	1510.000
1954.000	4290.600	1510.000
1955.000	4290.800	2330.000
1956.000	4291.000	3620.000
1957.000	4291.200	4550.000
1958.000	4291.400	3450.000
1959.000	4291.600	1880.000
1960.000	4291.800	1830.000
1961.000	4292.000	1570.000
1962.000	4292.200	2110.000
1963.000	4292.400	2120.000
1964.000	4292.600	2420.000
1965.000	4292.800	3060.000
1966.000	4293.000	3650.000
1967.000	4293.200	2900.000
1968.000	4293.400	1940.000
1969.000	4293.600	2270.000
1970.000	4293.800	1580.000
1971.000	4294.000	1620.000
1972.000	4294.200	1750.000
1973.000	4294.400	2280.000
1974.000	4294.600	2120.000
1975.000	4294.800	1710.000
1976.000	4295.000	1740.000
1977.000	4295.200	1360.000
1978.000	4295.400	1510.000
1979.000	4295.600	1530.000
1980.000	4295.800	1890.000
1981.000	4296.000	2190.000
1982.000	4296.200	2860.000
1983.000	4296.400	2520.000
1984.000	4296.600	1510.000
1985.000	4296.800	1460.000
1986.000	4297.000	1840.000
1987.000	4297.200	1450.000
1988.000	4297.400	1630.000
1989.000	4297.600	1490.000
1990.000	4297.800	1580.000
1991.000	4298.000	2090.000
1992.000	4298.200	2310.000
1993.000	4298.400	1900.000
1994.000	4298.600	1650.000
1995.000	4298.800	1780.000
1996.000	4299.000	1840.000
1997.000	4299.200	2340.000
1998.000	4299.400	1900.000
1999.000	4299.600	1720.000
2000.000	4299.800	1870.000
2001.000	4300.000	1580.000
2002.000	4300.200	1250.000
2003.000	4300.400	1250.000
2004.000	4300.600	1420.000
2005.000	4300.800	1620.000
2006.000	4301.000	1740.000
2007.000	4301.200	1740.000
2008.000	4301.400	1540.000
2009.000	4301.600	1440.000
2010.000	4301.800	1730.000
2011.000	4302.000	1670.000
2012.000	4302.200	1630.000
2013.000	4302.400	1690.000
2014.000	4302.600	1580.000
2015.000	4302.800	1370.000
2016.000	4303.000	1600.000
2017.000	4303.200	1570.000
2018.000	4303.400	1570.000
2019.000	4303.600	1540.000
2020.000	4303.800	1770.000
2021.000	4304.000	1800.000
2022.000	4304.200	1770.000
2023.000	4304.400	1620.000
2024.000	4304.600	1510.000
2025.000	4304.800	1530.000
2026.000	4305.000	1560.000
2027.000	4305.200	1500.000
2028.000	4305.400	1460.000
2029.000	4305.600	1570.000
2030.000	4305.800	1270.000
2031.000	4306.000	1410.000
2032.000	4306.200	1260.000
2033.000	4306.400	1430.000
2034.000	4306.600	1240.000
2035.000	4306.800	1430.000
2036.000	4307.000	1220.000
2037.000	4307.200	1220.000
2038.000	4307.400	1310.000
2039.000	4307.600	1630.000
2040.000	4307.800	1640.000
2041.000	4308.000	1540.000
2042.000	4308.200	1550.000
2043.000	4308.400	1400.000
2044.000	4308.600	1390.000
2045.000	4308.800	1360.000
2046.000	4309.000	1480.000
2047.000	4309.200	1260.000
2048.000	4309.400	1500.000
2049.000	4309.600	1820.000
2050.000	4309.800	1410.000
2051.000	4310.000	1350.000
2052.000	4310.200	1450.000
2053.000	4310.400	1870.000
2054.000	4310.600	1800.000
2055.000	4310.800	1890.000
2056.000	4311.000	1960.000
2057.000	4311.200	1840.000
2058.000	4311.400	1800.000
2059.000	4311.600	1520.000
2060.000	4311.800	1870.000
2061.000	4312.000	1600.000
2062.000	4312.200	1790.000
2063.000	4312.400	1580.000
2064.000	4312.600	1490.000
2065.000	4312.800	1330.000
2066.000	4313.000	1670.000
2067.000	4313.200	1900.000
2068.000	4313.400	1730.000
2069.000	4313.600	1620.000
2070.000	4313.800	1800.000
2071.000	4314.000	2030.000
2072.000	4314.200	2120.000
2073.000	4314.400	1700.000
2074.000	4314.600	1020.000
2075.000	4314.800	1960.000
2076.000	4315.000	2150.000
2077.000	4315.200	2200.000
2078.000	4315.400	1540.000
2079.000	4315.600	1350.000
2080.000	4315.800	1180.000
2081.000	4316.000	1460.000
2082.000	4316.200	1310.000
2083.000	4316.400	1760.000
2084.000	4316.600	2370.000
2085.000	4316.800	2370.000
2086.000	4317.000	1860.000
2087.000	4317.200	1600.000
2088.000	4317.400	1770.000
2089.000	4317.600	1620.000
2090.000	4317.800	1710.000
2091.000	4318.000	1520.000
2092.000	4318.200	1570.000
2093.000	4318.400	1600.000
2094.000	4318.600	1420.000
2095.000	4318.800	1160.000
2096.000	4319.000	1470.000
2097.000	4319.200	1420.000
2098.000	4319.400	1320.000
2099.000	4319.600	1520.000
2100.000	4319.800	1290.000
2101.000	4320.000	1800.000
2102.000	4320.200	2570.000
2103.000	4320.400	2320.000
2104.000	4320.600	1810.000
2105.000	4320.800	1330.000
2106.000	4321.000	1650.000
2107.000	4321.200	1770.000
2108.000	4321.400	1960.000
2109.000	4321.600	1980.000
2110.000	4321.800	1770.000
2111.000	4322.000	1470.000
2112.000	4322.200	1620.000
2113.000	4322.400	1660.000
2114.000	4322.600	1960.000
2115.000	4322.800	1920.000
2116.000	4323.000	2050.000
2117.000	4323.200	2180.000
2118.000	4323.400	2940.000
2119.000	4323.600	2050.000
2120.000	4323.800	2140.000
2121.000	4324.000	2740.000
2122.000	4324.200	3300.000
2123.000	4324.400	3300.000
2124.000	4324.600	2440.000
2125.000	4324.800	1830.000
2126.000	4325.000	1760.000
2127.000	4325.200	1540.000
2128.000	4325.400	1540.000
2129.000	4325.600	1830.000
2130.000	4325.800	1970.000
2131.000	4326.000	2240.000
2132.000	4326.200	2480.000
2133.000	4326.400	3560.000
2134.000	4326.600	3090.000
2135.000	4326.800	2370.000
2136.000	4327.000	1820.000
2137.000	4327.200	1630.000
2138.000	4327.400	1400.000
2139.000	4327.600	1660.000
2140.000	4327.800	1620.000
2141.000	4328.000	1460.000
2142.000	4328.200	1590.000
2143.000	4328.400	1620.000
2144.000	4328.600	1820.000
2145.000	4328.800	1900.000
2146.000	4329.000	1710.000
2147.000	4329.200	1620.000
2148.000	4329.400	1750.000
2149.000	4329.600	2070.000
2150.000	4329.800	1780.000
2151.000	4330.000	1670.000
2152.000	4330.200	1680.000
2153.000	4330.400	1330.000
2154.000	4330.600	1460.000
2155.000	4330.800	1210.000
2156.000	4331.000	1940.000
2157.000	4331.200	1840.000
2158.000	4331.400	2160.000
2159.000	4331.600	1820.000
2160.000	4331.800	1970.000
2161.000	4332.000	2060.000
2162.000	4332.200	2220.000
2163.000	4332.400	2240.000
2164.000	4332.600	3190.000
2165.000	4332.800	3160.000
2166.000	4333.000	1810.000
2167.000	4333.200	1360.000
2168.000	4333.400	1320.000
2169.000	4333.600	1480.000
2170.000	4333.800	1730.000
2171.000	4334.000	1890.000
2172.000	4334.200	1850.000
2173.000	4334.400	2090.000
2174.000	4334.600	2000.000
2175.000	4334.800	1720.000
2176.000	4335.000	1440.000
2177.000	4335.200	1540.000
2178.000	4335.400	2320.000
2179.000	4335.600	2600.000
2180.000	4335.800	2540.000
2181.000	4336.000	1720.000
2182.000	4336.200	1260.000
2183.000	4336.400	1130.000
2184.000	4336.600	1420.000
2185.000	4336.800	1440.000
2186.000	4337.000	1690.000
2187.000	4337.200	1560.000
2188.000	4337.400	2000.000
2189.000	4337.600	2250.000
2190.000	4337.800	2280.000
2191.000	4338.000	1870.000
2192.000	4338.200	1550.000
2193.000	4338.400	1460.000
2194.000	4338.600	1790.000
2195.000	4338.800	1700.000
2196.000	4339.000	1950.000
2197.000	4339.200	1710.000
2198.000	4339.400	1570.000
2199.000	4339.600	2440.000
2200.000	4339.800	3200.000
2201.000	4340.000	2150.000
2202.000	4340.200	1510.000
2203.000	4340.400	1360.000
2204.000	4340.600	1410.000
2205.000	4340.800	1200.000
2206.000	4341.000	1630.000
2207.000	4341.200	1860.000
2208.000	4341.400	2340.000
2209.000	4341.600	1810.000
2210.000	4341.800	1960.000
2211.000	4342.000	2330.000
2212.000	4342.200	4020.000
2213.000	4342.400	4140.000
2214.000	4342.600	3110.000
2215.000	4342.800	2150.000
2216.000	4343.000	1520.000
2217.000	4343.200	1690.000
2218.000	4343.400	1480.000
2219.000	4343.600	1440.000
2220.000	4343.800	1740.000
2221.000	4344.000	1860.000
2222.000	4344.200	1330.000
2223.000	4344.400	1420.000
2224.000	4344.600	1410.000
2225.000	4344.800	1560.000
2226.000	4345.000	1710.000
2227.000	4345.200	1620.000
2228.000	4345.400	1930.000
2229.000	4345.600	1860.000
2230.000	4345.800	1880.000
2231.000	4346.000	2170.000
2232.000	4346.200	1650.000
2233.000	4346.400	1690.000
2234.000	4346.600	1900.000
2235.000	4346.800	2020.000
2236.000	4347.000	2210.000
2237.000	4347.200	2870.000
2238.000	4347.400	2490.000
2239.000	4347.600	1780.000
2240.000	4347.800	1450.000
2241.000	4348.000	1270.000
2242.000	4348.200	1480.000
2243.000	4348.400	1250.000
2244.000	4348.600	1870.000
2245.000	4348.800	1280.000
2246.000	4349.000	1570.000
2247.000	4349.200	1550.000
2248.000	4349.400	1270.000
2249.000	4349.600	1420.000
2250.000	4349.800	1280.000
2251.000	4350.000	1140.000
2252.000	4350.200	1610.000
2253.000	4350.400	1950.000
2254.000	4350.600	1730.000
2255.000	4350.800	1840.000
2256.000	4351.000	1790.000
2257.000	4351.200	1740.000
2258.000	4351.400	1550.000
2259.000	4351.600	1310.000
2260.000	4351.800	1570.000
2261.000	4352.000	1990.000
2262.000	4352.200	2280.000
2263.000	4352.400	2940.000
2264.000	4352.600	2520.000
2265.000	4352.800	1920.000
2266.000	4353.000	2080.000
2267.000	4353.200	1660.000
2268.000	4353.400	1330.000
2269.000	4353.600	1520.000
2270.000	4353.800	1400.000
2271.000	4354.000	2040.000
2272.000	4354.200	2330.000
2273.000	4354.400	1870.000
2274.000	4354.600	1290.000
2275.000	4354.800	1170.000
2276.000	4355.000	1400.000
2277.000	4355.200	1630.000
2278.000	4355.400	1380.000
2279.000	4355.600	1370.000
2280.000	4355.800	1710.000
2281.000	4356.000	2040.000
2282.000	4356.200	1900.000
2283.000	4356.400	1610.000
2284.000	4356.600	1270.000
2285.000	4356.800	1150.000
2286.000	4357.000	1430.000
2287.000	4357.200	1660.000
2288.000	4357.400	1680.000
2289.000	4357.600	2270.000
2290.000	4357.800	2730.000
2291.000	4358.000	2010.000
2292.000	4358.200	1220.000
2293.000	4358.400	1830.000
2294.000	4358.600	1640.000
2295.000	4358.800	1250.000
2296.000	4359.000	1150.000
2297.000	4359.200	1920.000
2298.000	4359.400	2420.000
2299.000	4359.600	2340.000
2300.000	4359.800	1600.000
2301.000	4360.000	1380.000
2302.000	4360.200	1300.000
2303.000	4360.400	1470.000
2304.000	4360.600	1750.000
2305.000	4360.800	1850.000
2306.000	4361.000	1730.000
2307.000	4361.200	1450.000
2308.000	4361.400	1230.000
2309.000	4361.600	2020.000
2310.000	4361.800	1980.000
2311.000	4362.000	1620.000
2312.000	4362.200	1330.000
2313.000	4362.400	1350.000
2314.000	4362.600	1750.000
2315.000	4362.800	1850.000
2316.000	4363.000	1460.000
2317.000	4363.200	1030.000
2318.000	4363.400	1440.000
2319.000	4363.600	2130.000
2320.000	4363.800	2700.000
2321.000	4364.000	3010.000
2322.000	4364.200	1810.000
2323.000	4364.400	1770.000
2324.000	4364.600	2500.000
2325.000	4364.800	2760.000
2326.000	4365.000	1690.000
2327.000	4365.200	1710.000
2328.000	4365.400	1430.000
2329.000	4365.600	1590.000
2330.000	4365.800	1620.000
2331.000	4366.000	2000.000
2332.000	4366.200	3940.000
2333.000	4366.400	3140.000
2334.000	4366.600	2320.000
2335.000	4366.800	1850.000
2336.000	4367.000	1570.000
2337.000	4367.200	1470.000
2338.000	4367.400	1240.000
2339.000	4367.600	1220.000
2340.000	4367.800	1440.000
2341.000	4368.000	1300.000
2342.000	4368.200	1420.000
2343.000	4368.400	1480.000
2344.000	4368.600	1880.000
2345.000	4368.800	2460.000
2346.000	4369.000	3400.000
2347.000	4369.200	2570.000
2348.000	4369.400	2130.000
2349.000	4369.600	2090.000
2350.000	4369.800	2480.000
2351.000	4370.000	2250.000
2352.000	4370.200	1520.000
2353.000	4370.400	1680.000
2354.000	4370.600	1730.000
2355.000	4370.800	1680.000
2356.000	4371.000	1410.000
2357.000	4371.200	1310.000
2358.000	4371.400	1320.000
2359.000	4371.600	1260.000
2360.000	4371.800	1060.000
2361.000	4372.000	1280.000
2362.000	4372.200	1490.000
2363.000	4372.400	1480.000
2364.000	4372.600	1290.000
2365.000	4372.800	1410.000
2366.000	4373.000	1360.000
2367.000	4373.200	1700.000
2368.000	4373.400	1560.000
2369.000	4373.600	1890.000
2370.000	4373.800	2390.000
2371.000	4374.000	2750.000
2372.000	4374.200	2460.000
2373.000	4374.400	2120.000
2374.000	4374.600	2120.000
2375.000	4374.800	1710.000
2376.000	4375.000	1800.000
2377.000	4375.200	2240.000
2378.000	4375.400	2010.000
2379.000	4375.600	1830.000
2380.000	4375.800	1540.000
2381.000	4376.000	1650.000
2382.000	4376.200	1920.000
2383.000	4376.400	2250.000
2384.000	4376.600	3540.000
2385.000	4376.800	2850.000
2386.000	4377.000	2510.000
2387.000	4377.200	1910.000
2388.000	4377.400	1680.000
2389.000	4377.600	1640.000
2390.000	4377.800	1610.000
2391.000	4378.000	1640.000
2392.000	4378.200	1670.000
2393.000	4378.400	1850.000
2394.000	4378.600	1310.000
2395.000	4378.800	1360.000
2396.000	4379.000	1300.000
2397.000	4379.200	1730.000
2398.000	4379.400	1820.000
2399.000	4379.600	1550.000
2400.000	4379.800	1720.000
2401.000	4380.000	1790.000
2402.000	4380.200	1910.000
2403.000	4380.400	2180.000
2404.000	4380.600	2160.000
2405.000	4380.800	1620.000
2406.000	4381.000	1580.000
2407.000	4381.200	1690.000
2408.000	4381.400	1580.000
2409.000	4381.600	1240.000
2410.000	4381.800	1380.000
2411.000	4382.000	1220.000
2412.000	4382.200	1050.000
2413.000	4382.400	1160.000
2414.000	4382.600	1250.000
2415.000	4382.800	1150.000
2416.000	4383.000	1080.000
2417.000	4383.200	1520.000
2418.000	4383.400	1480.000
2419.000	4383.600	1800.000
2420.000	4383.800	1920.000
2421.000	4384.000	2150.000
2422.000	4384.200	2380.000
2423.000	4384.400	2060.000
2424.000	4384.600	1500.000
2425.000	4384.800	1390.000
2426.000	4385.000	1300.000
2427.000	4385.200	1250.000
2428.000	4385.400	1920.000
2429.000	4385.600	2120.000
2430.000	4385.800	1810.000
2431.000	4386.000	1120.000
2432.000	4386.200	1260.000
2433.000	4386.400	1780.000
2434.000	4386.600	1810.000
2435.000	4386.800	2020.000
2436.000	4387.000	1750.000
2437.000	4387.200	1320.000
2438.000	4387.400	1380.000
2439.000	4387.600	1180.000
2440.000	4387.800	1600.000
2441.000	4388.000	1470.000
2442.000	4388.200	1350.000
2443.000	4388.400	1460.000
2444.000	4388.600	1350.000
2445.000	4388.800	1480.000
2446.000	4389.000	1570.000
2447.000	4389.200	1710.000
2448.000	4389.400	1790.000
2449.000	4389.600	1360.000
2450.000	4389.800	1560.000
2451.000	4390.000	1810.000
2452.000	4390.200	2110.000
2453.000	4390.400	2080.000
2454.000	4390.600	1670.000
2455.000	4390.800	1360.000
2456.000	4391.000	1630.000
2457.000	4391.200	1580.000
2458.000	4391.400	1530.000
2459.000	4391.600	1400.000
2460.000	4391.800	1440.000
2461.000	4392.000	1310.000
2462.000	4392.200	1340.000
2463.000	4392.400	1270.000
2464.000	4392.600	1440.000
2465.000	4392.800	1480.000
2466.000	4393.000	1620.000
2467.000	4393.200	1390.000
2468.000	4393.400	1210.000
2469.000	4393.600	1460.000
2470.000	4393.800	1900.000
2471.000	4394.000	2100.000
2472.000	4394.200	1440.000
2473.000	4394.400	1270.000
2474.000	4394.600	1080.000
2475.000	4394.800	1090.000
2476.000	4395.000	1210.000
2477.000	4395.200	1320.000
2478.000	4395.400	1040.000
2479.000	4395.600	1290.000
2480.000	4395.800	1450.000
2481.000	4396.000	1580.000
2482.000	4396.200	1530.000
2483.000	4396.400	1460.000
2484.000	4396.600	1310.000
2485.000	4396.800	1370.000
2486.000	4397.000	1690.000
2487.000	4397.200	1770.000
2488.000	4397.400	2430.000
2489.000	4397.600	2590.000
2490.000	4397.800	2100.000
2491.000	4398.000	1630.000
2492.000	4398.200	1660.000
2493.000	4398.400	2160.000
2494.000	4398.600	1640.000
2495.000	4398.800	1500.000
2496.000	4399.000	1260.000
2497.000	4399.200	1200.000
2498.000	4399.400	1340.000
2499.000	4399.600	1240.000
2500.000	4399.800	1700.000
2501.000	4400.000	1970.000
2502.000	4400.200	2090.000
2503.000	4400.400	1640.000
2504.000	4400.600	1490.000
2505.000	4400.800	1450.000
2506.000	4401.000	1290.000
2507.000	4401.200	1200.000
2508.000	4401.400	1200.000
2509.000	4401.600	1330.000
2510.000	4401.800	1720.000
2511.000	4402.000	1350.000
2512.000	4402.200	1690.000
2513.000	4402.400	1510.000
2514.000	4402.600	2150.000
2515.000	4402.800	2030.000
2516.000	4403.000	1880.000
2517.000	4403.200	1300.000
2518.000	4403.400	1420.000
2519.000	4403.600	1160.000
2520.000	4403.800	1070.000
2521.000	4404.000	1450.000
2522.000	4404.200	1740.000
2523.000	4404.400	1920.000
2524.000	4404.600	2380.000
2525.000	4404.800	1500.000
2526.000	4405.000	1380.000
2527.000	4405.200	1100.000
2528.000	4405.400	1110.000
2529.000	4405.600	1210.000
2530.000	4405.800	1440.000
2531.000	4406.000	1410.000
2532.000	4406.200	1720.000
2533.000	4406.400	1450.000
2534.000	4406.600	1720.000
2535.000	4406.800	1800.000
2536.000	4407.000	1780.000
2537.000	4407.200	1600.000
2538.000	4407.400	1640.000
2539.000	4407.600	1660.000
2540.000	4407.800	1880.000
2541.000	4408.000	1440.000
2542.000	4408.200	1390.000
2543.000	4408.400	1510.000
2544.000	4408.600	2070.000
2545.000	4408.800	1790.000
2546.000	4409.000	1870.000
2547.000	4409.200	1660.000
2548.000	4409.400	1330.000
2549.000	4409.600	1320.000
2550.000	4409.800	1330.000
2551.000	4410.000	1580.000
2552.000	4410.200	2130.000
2553.000	4410.400	1560.000
2554.000	4410.600	1460.000
2555.000	4410.800	1540.000
2556.000	4411.000	1550.000
2557.000	4411.200	1470.000
2558.000	4411.400	1210.000
2559.000	4411.600	1770.000
2560.000	4411.800	1430.000
2561.000	4412.000	1480.000
2562.000	4412.200	2100.000
2563.000	4412.400	1810.000
2564.000	4412.600	1790.000
2565.000	4412.800	1910.000
2566.000	4413.000	2670.000
2567.000	4413.200	2080.000
2568.000	4413.400	1870.000
2569.000	4413.600	1220.000
2570.000	4413.800	1350.000
2571.000	4414.000	1300.000
2572.000	4414.200	1280.000
2573.000	4414.400	1350.000
2574.000	4414.600	1190.000
2575.000	4414.800	1120.000
2576.000	4415.000	1190.000
2577.000	4415.200	1300.000
2578.000	4415.400	1510.000
2579.000	4415.600	1830.000
2580.000	4415.800	1980.000
2581.000	4416.000	2100.000
2582.000	4416.200	2200.000
2583.000	4416.400	1960.000
2584.000	4416.600	1580.000
2585.000	4416.800	1420.000
2586.000	4417.000	1450.000
2587.000	4417.200	1540.000
2588.000	4417.400	1640.000
2589.000	4417.600	2130.000
2590.000	4417.800	2000.000
2591.000	4418.000	1720.000
2592.000	4418.200	1630.000
2593.000	4418.400	1440.000
2594.000	4418.600	1510.000
2595.000	4418.800	2280.000
2596.000	4419.000	1770.000
2597.000	4419.200	1520.000
2598.000	4419.400	1470.000
2599.000	4419.600	1360.000
2600.000	4419.800	1220.000
2601.000	4420.000	1110.000
2602.000	4420.200	1270.000
2603.000	4420.400	1380.000
2604.000	4420.600	1250.000
2605.000	4420.800	1410.000
2606.000	4421.000	1480.000
2607.000	4421.200	2250.000
2608.000	4421.400	2050.000
2609.000	4421.600	1460.000
2610.000	4421.800	1460.000
2611.000	4422.000	1600.000
2612.000	4422.200	1720.000
2613.000	4422.400	1600.000
2614.000	4422.600	1800.000
2615.000	4422.800	1110.000
2616.000	4423.000	990.000
2617.000	4423.200	1120.000
2618.000	4423.400	960.000
2619.000	4423.600	1240.000
2620.000	4423.800	1090.000
2621.000	4424.000	1230.000
2622.000	4424.200	1060.000
2623.000	4424.400	1310.000
2624.000	4424.600	1590.000
2625.000	4424.800	1930.000
2626.000	4425.000	1620.000
2627.000	4425.200	1350.000
2628.000	4425.400	1130.000
2629.000	4425.600	1310.000
2630.000	4425.800	1310.000
2631.000	4426.000	1370.000
2632.000	4426.200	1150.000
2633.000	4426.400	1230.000
2634.000	4426.600	1540.000
2635.000	4426.800	1530.000
2636.000	4427.000	2030.000
2637.000	4427.200	2230.000
2638.000	4427.400	2090.000
2639.000	4427.600	1640.000
2640.000	4427.800	1500.000
2641.000	4428.000	1620.000
2642.000	4428.200	1700.000
2643.000	4428.400	1750.000
2644.000	4428.600	1580.000
2645.000	4428.800	1450.000
2646.000	4429.000	1720.000
2647.000	4429.200	1730.000
2648.000	4429.400	2420.000
2649.000	4429.600	2520.000
2650.000	4429.800	2150.000
2651.000	4430.000	1810.000
2652.000	4430.200	1520.000
2653.000	4430.400	1650.000
2654.000	4430.600	1350.000
2655.000	4430.800	1540.000
2656.000	4431.000	1370.000
2657.000	4431.200	1250.000
2658.000	4431.400	1390.000
2659.000	4431.600	1250.000
2660.000	4431.800	1240.000
2661.000	4432.000	1320.000
2662.000	4432.200	1830.000
2663.000	4432.400	2750.000
2664.000	4432.600	2480.000
2665.000	4432.800	1560.000
2666.000	4433.000	1490.000
2667.000	4433.200	1570.000
2668.000	4433.400	1840.000
2669.000	4433.600	1550.000
2670.000	4433.800	1270.000
2671.000	4434.000	1280.000
2672.000	4434.200	1110.000
2673.000	4434.400	1270.000
2674.000	4434.600	1270.000
2675.000	4434.800	1260.000
2676.000	4435.000	1210.000
2677.000	4435.200	1540.000
2678.000	4435.400	1720.000
2679.000	4435.600	1740.000
2680.000	4435.800	1320.000
2681.000	4436.000	1110.000
2682.000	4436.200	1490.000
2683.000	4436.400	1530.000
2684.000	4436.600	2310.000
2685.000	4436.800	2180.000
2686.000	4437.000	1730.000
2687.000	4437.200	1360.000
2688.000	4437.400	1220.000
2689.000	4437.600	1020.000
2690.000	4437.800	1270.000
2691.000	4438.000	1480.000
2692.000	4438.200	1340.000
2693.000	4438.400	1340.000
2694.000	4438.600	1380.000
2695.000	4438.800	1420.000
2696.000	4439.000	1320.000
2697.000	4439.200	1560.000
2698.000	4439.400	1450.000
2699.000	4439.600	1410.000
2700.000	4439.800	1120.000
2701.000	4440.000	1090.000
2702.000	4440.200	1260.000
2703.000	4440.400	1660.000
2704.000	4440.600	2190.000
2705.000	4440.800	1790.000
2706.000	4441.000	1220.000
2707.000	4441.200	1160.000
2708.000	4441.400	1490.000
2709.000	4441.600	2000.000
2710.000	4441.800	2620.000
2711.000	4442.000	3070.000
2712.000	4442.200	1430.000
2713.000	4442.400	1110.000
2714.000	4442.600	1710.000
2715.000	4442.800	1240.000
2716.000	4443.000	1280.000
2717.000	4443.200	1310.000
2718.000	4443.400	1470.000
2719.000	4443.600	1050.000
2720.000	4443.800	1470.000
2721.000	4444.000	1280.000
2722.000	4444.200	1540.000
2723.000	4444.400	1450.000
2724.000	4444.600	1370.000
2725.000	4444.800	1050.000
2726.000	4445.000	1270.000
2727.000	4445.200	1010.000
2728.000	4445.400	1130.000
2729.000	4445.600	1190.000
2730.000	4445.800	1140.000
2731.000	4446.000	1720.000
2732.000	4446.200	3670.000
2733.000	4446.400	4620.000
2734.000	4446.600	3490.000
2735.000	4446.800	1680.000
2736.000	4447.000	1510.000
2737.000	4447.200	1570.000
2738.000	4447.400	1400.000
2739.000	4447.600	1470.000
2740.000	4447.800	1400.000
2741.000	4448.000	1420.000
2742.000	4448.200	1220.000
2743.000	4448.400	1140.000
2744.000	4448.600	1170.000
2745.000	4448.800	1370.000
2746.000	4449.000	2250.000
2747.000	4449.200	1960.000
2748.000	4449.400	1420.000
2749.000	4449.600	1380.000
2750.000	4449.800	1280.000
2751.000	4450.000	1320.000
2752.000	4450.200	1690.000
2753.000	4450.400	1860.000
2754.000	4450.600	2290.000
2755.000	4450.800	2670.000
2756.000	4451.000	3440.000
2757.000	4451.200	3020.000
2758.000	4451.400	1580.000
2759.000	4451.600	1460.000
2760.000	4451.800	1500.000
2761.000	4452.000	1250.000
2762.000	4452.200	1060.000
2763.000	4452.400	1440.000
2764.000	4452.600	1620.000
2765.000	4452.800	2750.000
2766.000	4453.000	2640.000
2767.000	4453.200	1620.000
2768.000	4453.400	1380.000
2769.000	4453.600	1300.000
2770.000	4453.800	1450.000
2771.000	4454.000	1760.000
2772.000	4454.200	2100.000
2773.000	4454.400	1990.000
2774.000	4454.600	1340.000
2775.000	4454.800	1600.000
2776.000	4455.000	1420.000
2777.000	4455.200	1300.000
2778.000	4455.400	1000.000
2779.000	4455.600	1410.000
2780.000	4455.800	1240.000
2781.000	4456.000	1820.000
2782.000	4456.200	2540.000
2783.000	4456.400	3270.000
2784.000	4456.600	3310.000
2785.000	4456.800	1980.000
2786.000	4457.000	1280.000
2787.000	4457.200	1240.000
2788.000	4457.400	1250.000
2789.000	4457.600	1700.000
2790.000	4457.800	2290.000
2791.000	4458.000	2800.000
2792.000	4458.200	4250.000
2793.000	4458.400	5280.000
2794.000	4458.600	2970.000
2795.000	4458.800	1820.000
2796.000	4459.000	1680.000
2797.000	4459.200	1730.000
2798.000	4459.400	1600.000
2799.000	4459.600	1630.000
2800.000	4459.800	1790.000
2801.000	4460.000	1590.000
2802.000	4460.200	1390.000
2803.000	4460.400	1370.000
2804.000	4460.600	1710.000
2805.000	4460.800	2660.000
2806.000	4461.000	3040.000
2807.000	4461.200	2140.000
2808.000	4461.400	1250.000
2809.000	4461.600	1300.000
2810.000	4461.800	1290.000
2811.000	4462.000	1510.000
2812.000	4462.200	2520.000
2813.000	4462.400	4080.000
2814.000	4462.600	4470.000
2815.000	4462.800	3170.000
2816.000	4463.000	3150.000
2817.000	4463.200	2610.000
2818.000	4463.400	1820.000
2819.000	4463.600	1690.000
2820.000	4463.800	2390.000
2821.000	4464.000	3930.000
2822.000	4464.200	3360.000
2823.000	4464.400	1470.000
2824.000	4464.600	1790.000
2825.000	4464.800	1470.000
2826.000	4465.000	1400.000
2827.000	4465.200	1310.000
2828.000	4465.400	1070.000
2829.000	4465.600	1150.000
2830.000	4465.800	1420.000
2831.000	4466.000	1070.000
2832.000	4466.200	1190.000
2833.000	4466.400	1020.000
2834.000	4466.600	1110.000
2835.000	4466.800	1450.000
2836.000	4467.000	1300.000
2837.000	4467.200	1240.000
2838.000	4467.400	1280.000
2839.000	4467.600	960.000
2840.000	4467.800	1280.000
2841.000	4468.000	1310.000
2842.000	4468.200	1640.000
2843.000	4468.400	1260.000
2844.000	4468.600	1300.000
2845.000	4468.800	2160.000
2846.000	4469.000	4160.000
2847.000	4469.200	3290.000
2848.000	4469.400	1220.000
2849.000	4469.600	1270.000
2850.000	4469.800	1070.000
2851.000	4470.000	1390.000
2852.000	4470.200	1260.000
2853.000	4470.400	1320.000
2854.000	4470.600	1510.000
2855.000	4470.800	2610.000
2856.000	4471.000	4350.000
2857.000	4471.200	3170.000
2858.000	4471.400	1460.000
2859.000	4471.600	1850.000
2860.000	4471.800	3200.000
2861.000	4472.000	5000.000
2862.000	4472.200	3190.000
2863.000	4472.400	1260.000
2864.000	4472.600	1010.000
2865.000	4472.800	1350.000
2866.000	4473.000	2170.000
2867.000	4473.200	3450.000
2868.000	4473.400	3360.000
2869.000	4473.600	2270.000
2870.000	4473.800	1520.000
2871.000	4474.000	1190.000
2872.000	4474.200	1040.000
2873.000	4474.400	950.000
2874.000	4474.600	1050.000
2875.000	4474.800	1010.000
2876.000	4475.000	1200.000
2877.000	4475.200	1300.000
2878.000	4475.400	1590.000
2879.000	4475.600	1850.000
2880.000	4475.800	1940.000
2881.000	4476.000	1950.000
2882.000	4476.200	2170.000
2883.000	4476.400	1920.000
2884.000	4476.600	1660.000
2885.000	4476.800	1440.000
2886.000	4477.000	1620.000
2887.000	4477.200	1530.000
2888.000	4477.400	1860.000
2889.000	4477.600	2860.000
2890.000	4477.800	2130.000
2891.000	4478.000	1090.000
2892.000	4478.200	1080.000
2893.000	4478.400	1140.000
2894.000	4478.600	1310.000
2895.000	4478.800	1290.000
2896.000	4479.000	1450.000
2897.000	4479.200	1170.000
2898.000	4479.400	1210.000
2899.000	4479.600	1530.000
2900.000	4479.800	1210.000
2901.000	4480.000	1310.000
2902.000	4480.200	1960.000
2903.000	4480.400	1930.000
2904.000	4480.600	1300.000
2905.000	4480.800	1210.000
2906.000	4481.000	1050.000
2907.000	4481.200	1180.000
2908.000	4481.400	1440.000
2909.000	4481.600	1770.000
2910.000	4481.800	1400.000
2911.000	4482.000	1100.000
2912.000	4482.200	1170.000
2913.000	4482.400	900.000
2914.000	4482.600	1060.000
2915.000	4482.800	1300.000
2916.000	4483.000	1050.000
2917.000	4483.200	1280.000
2918.000	4483.400	1550.000
2919.000	4483.600	1280.000
2920.000	4483.800	1200.000
2921.000	4484.000	1170.000
2922.000	4484.200	1160.000
2923.000	4484.400	1690.000
2924.000	4484.600	1350.000
2925.000	4484.800	1130.000
2926.000	4485.000	1170.000
2927.000	4485.200	1690.000
2928.000	4485.400	2230.000
2929.000	4485.600	2840.000
2930.000	4485.800	2060.000
2931.000	4486.000	2510.000
2932.000	4486.200	2020.000
2933.000	4486.400	1350.000
2934.000	4486.600	980.000
2935.000	4486.800	1220.000
2936.000	4487.000	1080.000
2937.000	4487.200	980.000
2938.000	4487.400	1190.000
2939.000	4487.600	1130.000
2940.000	4487.800	1010.000
2941.000	4488.000	1000.000
2942.000	4488.200	1160.000
2943.000	4488.400	1260.000
2944.000	4488.600	1250.000
2945.000	4488.800	1250.000
2946.000	4489.000	1430.000
2947.000	4489.200	1620.000
2948.000	4489.400	1540.000
2949.000	4489.600	1080.000
2950.000	4489.800	1260.000
2951.000	4490.000	1070.000
2952.000	4490.200	1350.000
2953.000	4490.400	1090.000
2954.000	4490.600	1230.000
2955.000	4490.800	1590.000
2956.000	4491.000	2440.000
2957.000	4491.200	3030.000
2958.000	4491.400	2090.000
2959.000	4491.600	1140.000
2960.000	4491.800	1030.000
2961.000	4492.000	1200.000
2962.000	4492.200	1130.000
2963.000	4492.400	1130.000
2964.000	4492.600	1100.000
2965.000	4492.800	1360.000
2966.000	4493.000	1430.000
2967.000	4493.200	1260.000
2968.000	4493.400	1180.000
2969.000	4493.600	1390.000
2970.000	4493.800	1220.000
2971.000	4494.000	990.000
2972.000	4494.200	1170.000
2973.000	4494.400	1470.000
2974.000	4494.600	1960.000
2975.000	4494.800	2280.000
2976.000	4495.000	2110.000
2977.000	4495.200	1430.000
2978.000	4495.400	1800.000
2979.000	4495.600	1990.000
2980.000	4495.800	1740.000
2981.000	4496.000	1670.000
2982.000	4496.200	2050.000
2983.000	4496.400	2150.000
2984.000	4496.600	1820.000
2985.000	4496.800	1210.000
2986.000	4497.000	1050.000
2987.000	4497.200	1060.000
2988.000	4497.400	1070.000
2989.000	4497.600	1070.000
2990.000	4497.800	980.000
2991.000	4498.000	1340.000
2992.000	4498.200	1120.000
2993.000	4498.400	1260.000
2994.000	4498.600	1240.000
2995.000	4498.800	1210.000
2996.000	4499.000	1190.000
2997.000	4499.200	1500.000
2998.000	4499.400	1280.000
2999.000	4499.600	1160.000
3000.000	4499.800	830.000
3001.000	4500.000	990.000
3002.000	4500.200	1190.000
3003.000	4500.400	1110.000
3004.000	4500.600	1180.000
3005.000	4500.800	900.000
3006.000	4501.000	920.000
3007.000	4501.200	1240.000
3008.000	4501.400	930.000
3009.000	4501.600	980.000
3010.000	4501.800	930.000
3011.000	4502.000	1260.000
3012.000	4502.200	1160.000
3013.000	4502.400	1140.000
3014.000	4502.600	1040.000
3015.000	4502.800	900.000
3016.000	4503.000	1210.000
3017.000	4503.200	1840.000
3018.000	4503.400	2020.000
3019.000	4503.600	1580.000
3020.000	4503.800	1090.000
3021.000	4504.000	1150.000
3022.000	4504.200	1200.000
3023.000	4504.400	1210.000
3024.000	4504.600	1210.000
3025.000	4504.800	1220.000
3026.000	4505.000	1230.000
3027.000	4505.200	1070.000
3028.000	4505.400	1600.000
3029.000	4505.600	3590.000
3030.000	4505.800	4830.000
3031.000	4506.000	5390.000
3032.000	4506.200	3330.000
3033.000	4506.400	1140.000
3034.000	4506.600	1400.000
3035.000	4506.800	1400.000
3036.000	4507.000	1350.000
3037.000	4507.200	800.000
3038.000	4507.400	1140.000
3039.000	4507.600	1490.000
3040.000	4507.800	1500.000
3041.000	4508.000	1060.000
3042.000	4508.200	1210.000
3043.000	4508.400	1200.000
3044.000	4508.600	990.000
3045.000	4508.800	1100.000
3046.000	4509.000	1390.000
3047.000	4509.200	2020.000
3048.000	4509.400	3710.000
3049.000	4509.600	4640.000
3050.000	4509.800	5640.000
3051.000	4510.000	4820.000
3052.000	4510.200	1720.000
3053.000	4510.400	1200.000
3054.000	4510.600	1060.000
3055.000	4510.800	1170.000
3056.000	4511.000	1220.000
3057.000	4511.200	1020.000
3058.000	4511.400	1050.000
3059.000	4511.600	1940.000
3060.000	4511.800	4100.000
3061.000	4512.000	8660.000
3062.000	4512.200	7260.000
3063.000	4512.400	3240.000
3064.000	4512.600	3770.000
3065.000	4512.800	2860.000
3066.000	4513.000	990.000
3067.000	4513.200	1020.000
3068.000	4513.400	910.000
3069.000	4513.600	930.000
3070.000	4513.800	1610.000
3071.000	4514.000	2600.000
3072.000	4514.200	4360.000
3073.000	4514.400	3690.000
3074.000	4514.600	1940.000
3075.000	4514.800	1340.000
3076.000	4515.000	1550.000
3077.000	4515.200	1460.000
3078.000	4515.400	1000.000
3079.000	4515.600	1010.000
3080.000	4515.800	1150.000
3081.000	4516.000	830.000
3082.000	4516.200	1150.000
3083.000	4516.400	1090.000
3084.000	4516.600	880.000
3085.000	4516.800	1120.000
3086.000	4517.000	1190.000
3087.000	4517.200	1070.000
3088.000	4517.400	1220.000
3089.000	4517.600	1010.000
3090.000	4517.800	1040.000
3091.000	4518.000	1060.000
3092.000	4518.200	1040.000
3093.000	4518.400	1020.000
3094.000	4518.600	1200.000
3095.000	4518.800	1200.000
3096.000	4519.000	1240.000
3097.000	4519.200	2120.000
3098.000	4519.400	2460.000
3099.000	4519.600	2480.000
3100.000	4519.800	3760.000
3101.000	4520.000	6170.000
3102.000	4520.200	5960.000
3103.000	4520.400	3280.000
3104.000	4520.600	1420.000
3105.000	4520.800	1540.000
3106.000	4521.000	1480.000
3107.000	4521.200	1420.000
3108.000	4521.400	1110.000
3109.000	4521.600	1110.000
3110.000	4521.800	1200.000
3111.000	4522.000	1680.000
3112.000	4522.200	3090.000
3113.000	4522.400	6110.000
3114.000	4522.600	6370.000
3115.000	4522.800	2940.000
3116.000	4523.000	1440.000
3117.000	4523.200	1280.000
3118.000	4523.400	1440.000
3119.000	4523.600	1370.000
3120.000	4523.800	940.000
3121.000	4524.000	980.000
3122.000	4524.200	1200.000
3123.000	4524.400	1170.000
3124.000	4524.600	1160.000
3125.000	4524.800	1740.000
3126.000	4525.000	1720.000
3127.000	4525.200	1190.000
3128.000	4525.400	1330.000
3129.000	4525.600	1030.000
3130.000	4525.800	1140.000
3131.000	4526.000	1280.000
3132.000	4526.200	1140.000
3133.000	4526.400	1260.000
3134.000	4526.600	1640.000
3135.000	4526.800	1360.000
3136.000	4527.000	1470.000
3137.000	4527.200	2300.000
3138.000	4527.400	3450.000
3139.000	4527.600	4030.000
3140.000	4527.800	3530.000
3141.000	4528.000	5450.000
3142.000	4528.200	4320.000
3143.000	4528.400	2680.000
3144.000	4528.600	3630.000
3145.000	4528.800	2670.000
3146.000	4529.000	1810.000
3147.000	4529.200	2510.000
3148.000	4529.400	4190.000
3149.000	4529.600	3690.000
3150.000	4529.800	1510.000
3151.000	4530.000	1160.000
3152.000	4530.200	1310.000
3153.000	4530.400	1410.000
3154.000	4530.600	1400.000
3155.000	4530.800	1630.000
3156.000	4531.000	1920.000
3157.000	4531.200	2350.000
3158.000	4531.400	1870.000
3159.000	4531.600	1040.000
3160.000	4531.800	950.000
3161.000	4532.000	1340.000
3162.000	4532.200	1370.000
3163.000	4532.400	1220.000
3164.000	4532.600	1380.000
3165.000	4532.800	1580.000
3166.000	4533.000	1640.000
3167.000	4533.200	1670.000
3168.000	4533.400	2760.000
3169.000	4533.600	1820.000
3170.000	4533.800	1080.000
3171.000	4534.000	1290.000
3172.000	4534.200	1460.000
3173.000	4534.400	1430.000
3174.000	4534.600	1430.000
3175.000	4534.800	1240.000
3176.000	4535.000	910.000
3177.000	4535.200	810.000
3178.000	4535.400	1010.000
3179.000	4535.600	1300.000
3180.000	4535.800	2200.000
3181.000	4536.000	1950.000
3182.000	4536.200	1720.000
3183.000	4536.400	1770.000
3184.000	4536.600	3620.000
3185.000	4536.800	3110.000
3186.000	4537.000	1910.000
3187.000	4537.200	880.000
3188.000	4537.400	1130.000
3189.000	4537.600	1110.000
3190.000	4537.800	880.000
3191.000	4538.000	1900.000
3192.000	4538.200	2570.000
3193.000	4538.400	3570.000
3194.000	4538.600	2880.000
3195.000	4538.800	1800.000
3196.000	4539.000	1220.000
3197.000	4539.200	1740.000
3198.000	4539.400	2430.000
3199.000	4539.600	3660.000
3200.000	4539.800	2400.000
3201.000	4540.000	1800.000
3202.000	4540.200	1300.000
3203.000	4540.400	1540.000
3204.000	4540.600	1930.000
3205.000	4540.800	2720.000
3206.000	4541.000	2270.000
3207.000	4541.200	2160.000
3208.000	4541.400	1670.000
3209.000	4541.600	1010.000
3210.000	4541.800	1240.000
3211.000	4542.000	910.000
3212.000	4542.200	1110.000
3213.000	4542.400	770.000
3214.000	4542.600	890.000
3215.000	4542.800	1100.000
3216.000	4543.000	990.000
3217.000	4543.200	1330.000
3218.000	4543.400	1310.000
3219.000	4543.600	1440.000
3220.000	4543.800	1670.000
3221.000	4544.000	1360.000
3222.000	4544.200	1390.000
3223.000	4544.400	1160.000
3224.000	4544.600	1240.000
3225.000	4544.800	1010.000
3226.000	4545.000	1340.000
3227.000	4545.200	1090.000
3228.000	4545.400	1300.000
3229.000	4545.600	1410.000
3230.000	4545.800	1930.000
3231.000	4546.000	2170.000
3232.000	4546.200	2280.000
3233.000	4546.400	2810.000
3234.000	4546.600	2560.000
3235.000	4546.800	1470.000
3236.000	4547.000	1030.000
3237.000	4547.200	1350.000
3238.000	4547.400	1710.000
3239.000	4547.600	1550.000
3240.000	4547.800	950.000
3241.000	4548.000	1150.000
3242.000	4548.200	1320.000
3243.000	4548.400	1430.000
3244.000	4548.600	1720.000
3245.000	4548.800	1610.000
3246.000	4549.000	1870.000
3247.000	4549.200	2210.000
3248.000	4549.400	2130.000
3249.000	4549.600	1300.000
3250.000	4549.800	1390.000
3251.000	4550.000	1300.000
3252.000	4550.200	1800.000
3253.000	4550.400	2030.000
3254.000	4550.600	1600.000
3255.000	4550.800	1110.000
3256.000	4551.000	1300.000
3257.000	4551.200	1440.000
3258.000	4551.400	1250.000
3259.000	4551.600	1380.000
3260.000	4551.800	1190.000
3261.000	4552.000	1090.000
3262.000	4552.200	1450.000
3263.000	4552.400	2180.000
3264.000	4552.600	1940.000
3265.000	4552.800	2000.000
3266.000	4553.000	1660.000
3267.000	4553.200	2290.000
3268.000	4553.400	2580.000
3269.000	4553.600	2020.000
3270.000	4553.800	1530.000
3271.000	4554.000	1080.000
3272.000	4554.200	960.000
3273.000	4554.400	1260.000
3274.000	4554.600	1140.000
3275.000	4554.800	890.000
3276.000	4555.000	1050.000
3277.000	4555.200	810.000
3278.000	4555.400	920.000
3279.000	4555.600	1080.000
3280.000	4555.800	850.000
3281.000	4556.000	960.000
3282.000	4556.200	950.000
3283.000	4556.400	960.000
3284.000	4556.600	1500.000
3285.000	4556.800	1980.000
3286.000	4557.000	3250.000
3287.000	4557.200	2720.000
3288.000	4557.400	1690.000
3289.000	4557.600	1010.000
3290.000	4557.800	1040.000
3291.000	4558.000	1160.000
3292.000	4558.200	1750.000
3293.000	4558.400	1980.000
3294.000	4558.600	1860.000
3295.000	4558.800	1530.000
3296.000	4559.000	1360.000
3297.000	4559.200	2000.000
3298.000	4559.400	2830.000
3299.000	4559.600	3120.000
3300.000	4559.800	2130.000
3301.000	4560.000	2000.000
3302.000	4560.200	2580.000
3303.000	4560.400	1600.000
3304.000	4560.600	1330.000
3305.000	4560.800	1800.000
3306.000	4561.000	1650.000
3307.000	4561.200	1580.000
3308.000	4561.400	2980.000
3309.000	4561.600	5450.000
3310.000	4561.800	3990.000
3311.000	4562.000	1680.000
3312.000	4562.200	1160.000
3313.000	4562.400	1600.000
3314.000	4562.600	1760.000
3315.000	4562.800	1140.000
3316.000	4563.000	890.000
3317.000	4563.200	830.000
3318.000	4563.400	1080.000
3319.000	4563.600	950.000
3320.000	4563.800	1310.000
3321.000	4564.000	1680.000
3322.000	4564.200	1940.000
3323.000	4564.400	3240.000
3324.000	4564.600	3610.000
3325.000	4564.800	2130.000
3326.000	4565.000	1690.000
3327.000	4565.200	1820.000
3328.000	4565.400	2140.000
3329.000	4565.600	2450.000
3330.000	4565.800	1990.000
3331.000	4566.000	1060.000
3332.000	4566.200	1330.000
3333.000	4566.400	980.000
3334.000	4566.600	930.000
3335.000	4566.800	1060.000
3336.000	4567.000	1040.000
3337.000	4567.200	1050.000
3338.000	4567.400	980.000
3339.000	4567.600	1140.000
3340.000	4567.800	1750.000
3341.000	4568.000	2130.000
3342.000	4568.200	1640.000
3343.000	4568.400	1360.000
3344.000	4568.600	1240.000
3345.000	4568.800	1620.000
3346.000	4569.000	1170.000
3347.000	4569.200	1010.000
3348.000	4569.400	1170.000
3349.000	4569.600	1480.000
3350.000	4569.800	2120.000
3351.000	4570.000	1810.000
3352.000	4570.200	1100.000
3353.000	4570.400	890.000
3354.000	4570.600	970.000
3355.000	4570.800	1040.000
3356.000	4571.000	1060.000
3357.000	4571.200	1260.000
3358.000	4571.400	890.000
3359.000	4571.600	1020.000
3360.000	4571.800	960.000
3361.000	4572.000	980.000
3362.000	4572.200	930.000
3363.000	4572.400	910.000
3364.000	4572.600	900.000
3365.000	4572.800	940.000
3366.000	4573.000	1170.000
3367.000	4573.200	1290.000
3368.000	4573.400	1270.000
3369.000	4573.600	1170.000
3370.000	4573.800	890.000
3371.000	4574.000	1110.000
3372.000	4574.200	1030.000
3373.000	4574.400	1090.000
3374.000	4574.600	1380.000
3375.000	4574.800	1210.000
3376.000	4575.000	1230.000
3377.000	4575.200	890.000
3378.000	4575.400	1000.000
3379.000	4575.600	1080.000
3380.000	4575.800	1020.000
3381.000	4576.000	1020.000
3382.000	4576.200	930.000
3383.000	4576.400	1020.000
3384.000	4576.600	890.000
3385.000	4576.800	890.000
3386.000	4577.000	860.000
3387.000	4577.200	950.000
3388.000	4577.400	840.000
3389.000	4577.600	1230.000
3390.000	4577.800	980.000
3391.000	4578.000	930.000
3392.000	4578.200	1070.000
3393.000	4578.400	1270.000
3394.000	4578.600	1340.000
3395.000	4578.800	1360.000
3396.000	4579.000	1050.000
3397.000	4579.200	1320.000
3398.000	4579.400	1350.000
3399.000	4579.600	1110.000
3400.000	4579.800	990.000
3401.000	4580.000	1120.000
3402.000	4580.200	1220.000
3403.000	4580.400	1150.000
3404.000	4580.600	1130.000
3405.000	4580.800	1060.000
3406.000	4581.000	890.000
3407.000	4581.200	920.000
3408.000	4581.400	920.000
3409.000	4581.600	940.000
3410.000	4581.800	1240.000
3411.000	4582.000	1470.000
3412.000	4582.200	1250.000
3413.000	4582.400	1200.000
3414.000	4582.600	1290.000
3415.000	4582.800	1070.000
3416.000	4583.000	1290.000
3417.000	4583.200	990.000
3418.000	4583.400	630.000
3419.000	4583.600	980.000
3420.000	4583.800	1070.000
3421.000	4584.000	1070.000
3422.000	4584.200	1080.000
3423.000	4584.400	1020.000
3424.000	4584.600	1080.000
3425.000	4584.800	990.000
3426.000	4585.000	960.000
3427.000	4585.200	970.000
3428.000	4585.400	860.000
3429.000	4585.600	850.000
3430.000	4585.800	780.000
3431.000	4586.000	980.000
3432.000	4586.200	1000.000
3433.000	4586.400	980.000
3434.000	4586.600	990.000
3435.000	4586.800	1180.000
3436.000	4587.000	1350.000
3437.000	4587.200	1700.000
3438.000	4587.400	1700.000
3439.000	4587.600	1310.000
3440.000	4587.800	1160.000
3441.000	4588.000	1110.000
3442.000	4588.200	1290.000
3443.000	4588.400	980.000
3444.000	4588.600	1020.000
3445.000	4588.800	1390.000
3446.000	4589.000	1310.000
3447.000	4589.200	1020.000
3448.000	4589.400	970.000
3449.000	4589.600	1080.000
3450.000	4589.800	1000.000
3451.000	4590.000	950.000
3452.000	4590.200	1080.000
3453.000	4590.400	940.000
3454.000	4590.600	1100.000
3455.000	4590.800	930.000
3456.000	4591.000	940.000
3457.000	4591.200	1080.000
3458.000	4591.400	1190.000
3459.000	4591.600	1820.000
3460.000	4591.800	1650.000
3461.000	4592.000	1480.000
3462.000	4592.200	1270.000
3463.000	4592.400	950.000
3464.000	4592.600	850.000
3465.000	4592.800	810.000
3466.000	4593.000	1000.000
3467.000	4593.200	1220.000
3468.000	4593.400	1030.000
3469.000	4593.600	1090.000
3470.000	4593.800	1150.000
3471.000	4594.000	910.000
3472.000	4594.200	1020.000
3473.000	4594.400	1100.000
3474.000	4594.600	1050.000
3475.000	4594.800	1280.000
3476.000	4595.000	980.000
3477.000	4595.200	780.000
3478.000	4595.400	1010.000
3479.000	4595.600	870.000
3480.000	4595.800	1150.000
3481.000	4596.000	850.000
3482.000	4596.200	1200.000
3483.000	4596.400	1390.000
3484.000	4596.600	1930.000
3485.000	4596.800	3190.000
3486.000	4597.000	2440.000
3487.000	4597.200	1050.000
3488.000	4597.400	1000.000
3489.000	4597.600	1050.000
3490.000	4597.800	960.000
3491.000	4598.000	880.000
3492.000	4598.200	830.000
3493.000	4598.400	1170.000
3494.000	4598.600	1050.000
3495.000	4598.800	1120.000
3496.000	4599.000	1240.000
3497.000	4599.200	970.000
3498.000	4599.400	1120.000
3499.000	4599.600	1310.000
3500.000	4599.800	880.000
3501.000	4600.000	880.000
3502.000	4600.200	1120.000
3503.000	4600.400	1550.000
3504.000	4600.600	2320.000
3505.000	4600.800	3090.000
3506.000	4601.000	2690.000
3507.000	4601.200	1330.000
3508.000	4601.400	1320.000
3509.000	4601.600	1250.000
3510.000	4601.800	850.000
3511.000	4602.000	1030.000
3512.000	4602.200	1040.000
3513.000	4602.400	930.000
3514.000	4602.600	1070.000
3515.000	4602.800	1160.000
3516.000	4603.000	1000.000
3517.000	4603.200	840.000
3518.000	4603.400	960.000
3519.000	4603.600	900.000
3520.000	4603.800	1050.000
3521.000	4604.000	950.000
3522.000	4604.200	980.000
3523.000	4604.400	1040.000
3524.000	4604.600	920.000
3525.000	4604.800	1160.000
3526.000	4605.000	1420.000
3527.000	4605.200	1740.000
3528.000	4605.400	1800.000
3529.000	4605.600	1470.000
3530.000	4605.800	1030.000
3531.000	4606.000	830.000
3532.000	4606.200	910.000
3533.000	4606.400	1250.000
3534.000	4606.600	1140.000
3535.000	4606.800	1280.000
3536.000	4607.000	1050.000
3537.000	4607.200	1030.000
3538.000	4607.400	1070.000
3539.000	4607.600	1550.000
3540.000	4607.800	2150.000
3541.000	4608.000	2710.000
3542.000	4608.200	1770.000
3543.000	4608.400	1110.000
3544.000	4608.600	1080.000
3545.000	4608.800	1150.000
3546.000	4609.000	1260.000
3547.000	4609.200	1170.000
3548.000	4609.400	1190.000
3549.000	4609.600	1560.000
3550.000	4609.800	2560.000
3551.000	4610.000	3490.000
3552.000	4610.200	2130.000
3553.000	4610.400	1170.000
3554.000	4610.600	1290.000
3555.000	4610.800	2320.000
3556.000	4611.000	3710.000
3557.000	4611.200	4000.000
3558.000	4611.400	3540.000
3559.000	4611.600	3110.000
3560.000	4611.800	2100.000
3561.000	4612.000	2010.000
3562.000	4612.200	1580.000
3563.000	4612.400	970.000
3564.000	4612.600	1050.000
3565.000	4612.800	990.000
3566.000	4613.000	930.000
3567.000	4613.200	1080.000
3568.000	4613.400	1010.000
3569.000	4613.600	1000.000
3570.000	4613.800	970.000
3571.000	4614.000	880.000
3572.000	4614.200	860.000
3573.000	4614.400	820.000
3574.000	4614.600	840.000
3575.000	4614.800	930.000
3576.000	4615.000	1380.000
3577.000	4615.200	1610.000
3578.000	4615.400	1280.000
3579.000	4615.600	1470.000
3580.000	4615.800	980.000
3581.000	4616.000	1020.000
3582.000	4616.200	1280.000
3583.000	4616.400	1100.000
3584.000	4616.600	1030.000
3585.000	4616.800	1440.000
3586.000	4617.000	970.000
3587.000	4617.200	960.000
3588.000	4617.400	840.000
3589.000	4617.600	990.000
3590.000	4617.800	800.000
3591.000	4618.000	1050.000
3592.000	4618.200	890.000
3593.000	4618.400	1020.000
3594.000	4618.600	1190.000
3595.000	4618.800	1110.000
3596.000	4619.000	1290.000
3597.000	4619.200	990.000
3598.000	4619.400	1040.000
3599.000	4619.600	1210.000
3600.000	4619.800	1390.000
3601.000	4620.000	1830.000
3602.000	4620.200	1780.000
3603.000	4620.400	2250.000
3604.000	4620.600	1910.000
3605.000	4620.800	1700.000
3606.000	4621.000	1460.000
3607.000	4621.200	1340.000
3608.000	4621.400	1100.000
3609.000	4621.600	1040.000
3610.000	4621.800	1110.000
3611.000	4622.000	1010.000
3612.000	4622.200	1010.000
3613.000	4622.400	1020.000
3614.000	4622.600	940.000
3615.000	4622.800	1260.000
3616.000	4623.000	900.000
3617.000	4623.200	1040.000
3618.000	4623.400	1290.000
3619.000	4623.600	1000.000
3620.000	4623.800	1010.000
3621.000	4624.000	1000.000
3622.000	4624.200	970.000
3623.000	4624.400	970.000
3624.000	4624.600	980.000
3625.000	4624.800	960.000
3626.000	4625.000	1020.000
3627.000	4625.200	1050.000
3628.000	4625.400	1140.000
3629.000	4625.600	860.000
3630.000	4625.800	1010.000
3631.000	4626.000	1080.000
3632.000	4626.200	1140.000
3633.000	4626.400	1110.000
3634.000	4626.600	1030.000
3635.000	4626.800	1030.000
3636.000	4627.000	990.000
3637.000	4627.200	1010.000
3638.000	4627.400	1200.000
3639.000	4627.600	1170.000
3640.000	4627.800	1340.000
3641.000	4628.000	1330.000
3642.000	4628.200	1630.000
3643.000	4628.400	1480.000
3644.000	4628.600	1190.000
3645.000	4628.800	1040.000
3646.000	4629.000	1050.000
3647.000	4629.200	1180.000
3648.000	4629.400	1040.000
3649.000	4629.600	1160.000
3650.000	4629.800	1480.000
3651.000	4630.000	1600.000
3652.000	4630.200	1350.000
3653.000	4630.400	1210.000
3654.000	4630.600	1020.000
3655.000	4630.800	890.000
3656.000	4631.000	1090.000
3657.000	4631.200	1250.000
3658.000	4631.400	1340.000
3659.000	4631.600	1430.000
3660.000	4631.800	1290.000
3661.000	4632.000	1340.000
3662.000	4632.200	1110.000
3663.000	4632.400	1220.000
3664.000	4632.600	1050.000
3665.000	4632.800	1110.000
3666.000	4633.000	1130.000
3667.000	4633.200	1590.000
3668.000	4633.400	1650.000
3669.000	4633.600	1260.000
3670.000	4633.800	1240.000
3671.000	4634.000	1460.000
3672.000	4634.200	1380.000
3673.000	4634.400	1710.000
3674.000	4634.600	1720.000
3675.000	4634.800	1640.000
3676.000	4635.000	1080.000
3677.000	4635.200	1150.000
3678.000	4635.400	1030.000
3679.000	4635.600	1050.000
3680.000	4635.800	940.000
3681.000	4636.000	1120.000
3682.000	4636.200	1230.000
3683.000	4636.400	720.000
3684.000	4636.600	980.000
3685.000	4636.800	1210.000
3686.000	4637.000	1130.000
3687.000	4637.200	1520.000
3688.000	4637.400	1450.000
3689.000	4637.600	1290.000
3690.000	4637.800	1260.000
3691.000	4638.000	1100.000
3692.000	4638.200	1070.000
3693.000	4638.400	1130.000
3694.000	4638.600	1010.000
3695.000	4638.800	1070.000
3696.000	4639.000	1090.000
3697.000	4639.200	1180.000
3698.000	4639.400	1240.000
3699.000	4639.600	1430.000
3700.000	4639.800	1510.000
3701.000	4640.000	1500.000
3702.000	4640.200	930.000
3703.000	4640.400	990.000
3704.000	4640.600	1040.000
3705.000	4640.800	1110.000
3706.000	4641.000	1330.000
3707.000	4641.200	2010.000
3708.000	4641.400	2050.000
3709.000	4641.600	1620.000
3710.000	4641.800	1120.000
3711.000	4642.000	1530.000
3712.000	4642.200	1560.000
3713.000	4642.400	1250.000
3714.000	4642.600	1080.000
3715.000	4642.800	1080.000
3716.000	4643.000	1170.000
3717.000	4643.200	930.000
3718.000	4643.400	1030.000
3719.000	4643.600	1280.000
3720.000	4643.800	1870.000
3721.000	4644.000	2040.000
3722.000	4644.200	1690.000
3723.000	4644.400	1270.000
3724.000	4644.600	1140.000
3725.000	4644.800	1380.000
3726.000	4645.000	1510.000
3727.000	4645.200	1270.000
3728.000	4645.400	1450.000
3729.000	4645.600	990.000
3730.000	4645.800	1740.000
3731.000	4646.000	1210.000
3732.000	4646.200	850.000
3733.000	4646.400	900.000
3734.000	4646.600	960.000
3735.000	4646.800	1240.000
3736.000	4647.000	1030.000
3737.000	4647.200	1210.000
3738.000	4647.400	920.000
3739.000	4647.600	850.000
3740.000	4647.800	1050.000
3741.000	4648.000	1390.000
3742.000	4648.200	1520.000
3743.000	4648.400	1260.000
3744.000	4648.600	1060.000
3745.000	4648.800	1050.000
3746.000	4649.000	980.000
3747.000	4649.200	740.000
3748.000	4649.400	780.000
3749.000	4649.600	860.000
3750.000	4649.800	920.000
3751.000	4650.000	870.000
3752.000	4650.200	1100.000
3753.000	4650.400	1170.000
3754.000	4650.600	1200.000
3755.000	4650.800	1220.000
3756.000	4651.000	1400.000
3757.000	4651.200	1280.000
3758.000	4651.400	1380.000
3759.000	4651.600	1600.000
3760.000	4651.800	1850.000
3761.000	4652.000	2300.000
3762.000	4652.200	2190.000
3763.000	4652.400	1320.000
3764.000	4652.600	1130.000
3765.000	4652.800	1420.000
3766.000	4653.000	1080.000
3767.000	4653.200	790.000
3768.000	4653.400	1000.000
3769.000	4653.600	980.000
3770.000	4653.800	1050.000
3771.000	4654.000	960.000
3772.000	4654.200	950.000
3773.000	4654.400	810.000
3774.000	4654.600	840.000
3775.000	4654.800	1770.000
3776.000	4655.000	1930.000
3777.000	4655.200	1600.000
3778.000	4655.400	1120.000
3779.000	4655.600	1100.000
3780.000	4655.800	900.000
3781.000	4656.000	740.000
3782.000	4656.200	900.000
3783.000	4656.400	780.000
3784.000	4656.600	1190.000
3785.000	4656.800	970.000
3786.000	4657.000	1320.000
3787.000	4657.200	1760.000
3788.000	4657.400	1860.000
3789.000	4657.600	1410.000
3790.000	4657.800	1970.000
3791.000	4658.000	2010.000
3792.000	4658.200	2260.000
3793.000	4658.400	1740.000
3794.000	4658.600	1950.000
3795.000	4658.800	1420.000
3796.000	4659.000	1100.000
3797.000	4659.200	1240.000
3798.000	4659.400	800.000
3799.000	4659.600	1060.000
3800.000	4659.800	1100.000
3801.000	4660.000	1480.000
3802.000	4660.200	1860.000
3803.000	4660.400	1970.000
3804.000	4660.600	1420.000
3805.000	4660.800	1290.000
3806.000	4661.000	1220.000
3807.000	4661.200	980.000
3808.000	4661.400	1290.000
3809.000	4661.600	1650.000
3810.000	4661.800	2110.000
3811.000	4662.000	1930.000
3812.000	4662.200	1470.000
3813.000	4662.400	1440.000
3814.000	4662.600	1350.000
3815.000	4662.800	1090.000
3816.000	4663.000	950.000
3817.000	4663.200	1130.000
3818.000	4663.400	1440.000
3819.000	4663.600	1640.000
3820.000	4663.800	1750.000
3821.000	4664.000	1430.000
3822.000	4664.200	1130.000
3823.000	4664.400	890.000
3824.000	4664.600	1140.000
3825.000	4664.800	940.000
3826.000	4665.000	790.000
3827.000	4665.200	1100.000
3828.000	4665.400	1110.000
3829.000	4665.600	1070.000
3830.000	4665.800	1210.000
3831.000	4666.000	1160.000
3832.000	4666.200	1160.000
3833.000	4666.400	800.000
3834.000	4666.600	1140.000
3835.000	4666.800	1220.000
3836.000	4667.000	1240.000
3837.000	4667.200	1080.000
3838.000	4667.400	1130.000
3839.000	4667.600	1110.000
3840.000	4667.800	900.000
3841.000	4668.000	1190.000
3842.000	4668.200	1250.000
3843.000	4668.400	1160.000
3844.000	4668.600	1210.000
3845.000	4668.800	900.000
3846.000	4669.000	1060.000
3847.000	4669.200	1210.000
3848.000	4669.400	1140.000
3849.000	4669.600	970.000
3850.000	4669.800	1150.000
3851.000	4670.000	1240.000
3852.000	4670.200	1280.000
3853.000	4670.400	1040.000
3854.000	4670.600	910.000
3855.000	4670.800	790.000
3856.000	4671.000	920.000
3857.000	4671.200	1340.000
3858.000	4671.400	1530.000
3859.000	4671.600	1730.000
3860.000	4671.800	1130.000
3861.000	4672.000	1280.000
3862.000	4672.200	1170.000
3863.000	4672.400	1160.000
3864.000	4672.600	1060.000
3865.000	4672.800	1240.000
3866.000	4673.000	1280.000
3867.000	4673.200	1230.000
3868.000	4673.400	1160.000
3869.000	4673.600	970.000
3870.000	4673.800	1000.000
3871.000	4674.000	1180.000
3872.000	4674.200	1540.000
3873.000	4674.400	2370.000
3874.000	4674.600	2330.000
3875.000	4674.800	1510.000
3876.000	4675.000	1470.000
3877.000	4675.200	2290.000
3878.000	4675.400	1890.000
3879.000	4675.600	1250.000
3880.000	4675.800	880.000
3881.000	4676.000	1040.000
3882.000	4676.200	1220.000
3883.000	4676.400	1360.000
3884.000	4676.600	1230.000
3885.000	4676.800	1350.000
3886.000	4677.000	1990.000
3887.000	4677.200	2050.000
3888.000	4677.400	1270.000
3889.000	4677.600	930.000
3890.000	4677.800	690.000
3891.000	4678.000	810.000
3892.000	4678.200	720.000
3893.000	4678.400	920.000
3894.000	4678.600	960.000
3895.000	4678.800	1120.000
3896.000	4679.000	1210.000
3897.000	4679.200	1350.000
3898.000	4679.400	1320.000
3899.000	4679.600	2230.000
3900.000	4679.800	1860.000
3901.000	4680.000	1340.000
3902.000	4680.200	990.000
3903.000	4680.400	1170.000
3904.000	4680.600	1610.000
3905.000	4680.800	1300.000
3906.000	4681.000	1110.000
3907.000	4681.200	1540.000
3908.000	4681.400	1800.000
3909.000	4681.600	1120.000
3910.000	4681.800	900.000
3911.000	4682.000	900.000
3912.000	4682.200	790.000
3913.000	4682.400	1010.000
3914.000	4682.600	1170.000
3915.000	4682.800	960.000
3916.000	4683.000	680.000
3917.000	4683.200	1210.000
3918.000	4683.400	1250.000
3919.000	4683.600	1780.000
3920.000	4683.800	1690.000
3921.000	4684.000	1090.000
3922.000	4684.200	1170.000
3923.000	4684.400	1290.000
3924.000	4684.600	1390.000
3925.000	4684.800	1190.000
3926.000	4685.000	1110.000
3927.000	4685.200	1010.000
3928.000	4685.400	870.000
3929.000	4685.600	910.000
3930.000	4685.800	900.000
3931.000	4686.000	1080.000
3932.000	4686.200	1340.000
3933.000	4686.400	1110.000
3934.000	4686.600	770.000
3935.000	4686.800	860.000
3936.000	4687.000	1140.000
3937.000	4687.200	1450.000
3938.000	4687.400	1630.000
3939.000	4687.600	1220.000
3940.000	4687.800	1400.000
3941.000	4688.000	1280.000
3942.000	4688.200	1120.000
3943.000	4688.400	1120.000
3944.000	4688.600	880.000
3945.000	4688.800	840.000
3946.000	4689.000	940.000
3947.000	4689.200	1110.000
3948.000	4689.400	920.000
3949.000	4689.600	1050.000
3950.000	4689.800	770.000
3951.000	4690.000	850.000
3952.000	4690.200	1040.000
3953.000	4690.400	840.000
3954.000	4690.600	900.000
3955.000	4690.800	1410.000
3956.000	4691.000	1810.000
3957.000	4691.200	1660.000
3958.000	4691.400	1280.000
3959.000	4691.600	1000.000
3960.000	4691.800	1150.000
3961.000	4692.000	1360.000
3962.000	4692.200	1400.000
3963.000	4692.400	1270.000
3964.000	4692.600	880.000
3965.000	4692.800	920.000
3966.000	4693.000	1250.000
3967.000	4693.200	1570.000
3968.000	4693.400	1880.000
3969.000	4693.600	1100.000
3970.000	4693.800	740.000
3971.000	4694.000	820.000
3972.000	4694.200	660.000
3973.000	4694.400	960.000
3974.000	4694.600	1090.000
3975.000	4694.800	1300.000
3976.000	4695.000	1370.000
3977.000	4695.200	1020.000
3978.000	4695.400	1030.000
3979.000	4695.600	960.000
3980.000	4695.800	670.000
3981.000	4696.000	1100.000
3982.000	4696.200	900.000
3983.000	4696.400	980.000
3984.000	4696.600	1170.000
3985.000	4696.800	1140.000
3986.000	4697.000	1220.000
3987.000	4697.200	1390.000
3988.000	4697.400	1340.000
3989.000	4697.600	930.000
3990.000	4697.800	680.000
3991.000	4698.000	910.000
3992.000	4698.200	750.000
3993.000	4698.400	750.000
3994.000	4698.600	1190.000
3995.000	4698.800	1240.000
3996.000	4699.000	1660.000
3997.000	4699.200	1430.000
3998.000	4699.400	1070.000
3999.000	4699.600	1480.000
4000.000	4699.800	1630.000
4001.000	4700.000	1740.000
4002.000	4700.200	1480.000
4003.000	4700.400	1220.000
4004.000	4700.600	1210.000
4005.000	4700.800	1570.000
4006.000	4701.000	2430.000
4007.000	4701.200	1830.000
4008.000	4701.400	960.000
4009.000	4701.600	1170.000
4010.000	4701.800	1170.000
4011.000	4702.000	1170.000
4012.000	4702.200	990.000
4013.000	4702.400	1150.000
4014.000	4702.600	910.000
4015.000	4702.800	810.000
4016.000	4703.000	700.000
4017.000	4703.200	740.000
4018.000	4703.400	1080.000
4019.000	4703.600	960.000
4020.000	4703.800	1200.000
4021.000	4704.000	1320.000
4022.000	4704.200	1140.000
4023.000	4704.400	1000.000
4024.000	4704.600	1340.000
4025.000	4704.800	1660.000
4026.000	4705.000	1990.000
4027.000	4705.200	1390.000
4028.000	4705.400	690.000
4029.000	4705.600	850.000
4030.000	4705.800	850.000
4031.000	4706.000	820.000
4032.000	4706.200	1160.000
4033.000	4706.400	1340.000
4034.000	4706.600	1080.000
4035.000	4706.800	900.000
4036.000	4707.000	900.000
4037.000	4707.200	870.000
4038.000	4707.400	1000.000
4039.000	4707.600	1110.000
4040.000	4707.800	1150.000
4041.000	4708.000	1280.000
4042.000	4708.200	1000.000
4043.000	4708.400	1030.000
4044.000	4708.600	1150.000
4045.000	4708.800	1010.000
4046.000	4709.000	1240.000
4047.000	4709.200	1120.000
4048.000	4709.400	1260.000
4049.000	4709.600	1210.000
4050.000	4709.800	1220.000
4051.000	4710.000	1310.000
4052.000	4710.200	1280.000
4053.000	4710.400	860.000
4054.000	4710.600	1070.000
4055.000	4710.800	1170.000
4056.000	4711.000	860.000
4057.000	4711.200	1030.000
4058.000	4711.400	990.000
4059.000	4711.600	890.000
4060.000	4711.800	1290.000
4061.000	4712.000	1530.000
4062.000	4712.200	1910.000
4063.000	4712.400	1430.000
4064.000	4712.600	1060.000
4065.000	4712.800	2300.000
4066.000	4713.000	3070.000
4067.000	4713.200	2420.000
4068.000	4713.400	1550.000
4069.000	4713.600	2300.000
4070.000	4713.800	1960.000
4071.000	4714.000	1020.000
4072.000	4714.200	1120.000
4073.000	4714.400	1450.000
4074.000	4714.600	2320.000
4075.000	4714.800	2510.000
4076.000	4715.000	1620.000
4077.000	4715.200	1420.000
4078.000	4715.400	1680.000
4079.000	4715.600	1660.000
4080.000	4715.800	950.000
4081.000	4716.000	1190.000
4082.000	4716.200	1540.000
4083.000	4716.400	1660.000
4084.000	4716.600	1100.000
4085.000	4716.800	820.000
4086.000	4717.000	930.000
4087.000	4717.200	980.000
4088.000	4717.400	1010.000
4089.000	4717.600	900.000
4090.000	4717.800	1000.000
4091.000	4718.000	640.000
4092.000	4718.200	1000.000
4093.000	4718.400	1300.000
4094.000	4718.600	1250.000
4095.000	4718.800	1420.000
4096.000	4719.000	1470.000
4097.000	4719.200	1000.000
4098.000	4719.400	1040.000
4099.000	4719.600	1360.000
4100.000	4719.800	1140.000
4101.000	4720.000	1420.000
4102.000	4720.200	1830.000
4103.000	4720.400	1900.000
4104.000	4720.600	1950.000
4105.000	4720.800	1480.000
4106.000	4721.000	1320.000
4107.000	4721.200	1860.000
4108.000	4721.400	3270.000
4109.000	4721.600	3150.000
4110.000	4721.800	1950.000
4111.000	4722.000	1100.000
4112.000	4722.200	1210.000
4113.000	4722.400	940.000
4114.000	4722.600	950.000
4115.000	4722.800	1250.000
4116.000	4723.000	1240.000
4117.000	4723.200	1410.000
4118.000	4723.400	1590.000
4119.000	4723.600	2450.000
4120.000	4723.800	3790.000
4121.000	4724.000	2130.000
4122.000	4724.200	1160.000
4123.000	4724.400	1250.000
4124.000	4724.600	1220.000
4125.000	4724.800	1430.000
4126.000	4725.000	1250.000
4127.000	4725.200	1260.000
4128.000	4725.400	2030.000
4129.000	4725.600	2930.000
4130.000	4725.800	2990.000
4131.000	4726.000	1720.000
4132.000	4726.200	1800.000
4133.000	4726.400	2020.000
4134.000	4726.600	2470.000
4135.000	4726.800	2780.000
4136.000	4727.000	2650.000
4137.000	4727.200	2330.000
4138.000	4727.400	1800.000
4139.000	4727.600	1990.000
4140.000	4727.800	2230.000
4141.000	4728.000	1790.000
4142.000	4728.200	820.000
4143.000	4728.400	970.000
4144.000	4728.600	820.000
4145.000	4728.800	1030.000
4146.000	4729.000	1230.000
4147.000	4729.200	1840.000
4148.000	4729.400	1810.000
4149.000	4729.600	1560.000
4150.000	4729.800	800.000
4151.000	4730.000	950.000
4152.000	4730.200	1290.000
4153.000	4730.400	1430.000
4154.000	4730.600	2010.000
4155.000	4730.800	1600.000
4156.000	4731.000	1150.000
4157.000	4731.200	850.000
4158.000	4731.400	920.000
4159.000	4731.600	1280.000
4160.000	4731.800	1590.000
4161.000	4732.000	1830.000
4162.000	4732.200	1440.000
4163.000	4732.400	990.000
4164.000	4732.600	1120.000
4165.000	4732.800	1040.000
4166.000	4733.000	1150.000
4167.000	4733.200	940.000
4168.000	4733.400	1320.000
4169.000	4733.600	1960.000
4170.000	4733.800	2540.000
4171.000	4734.000	1770.000
4172.000	4734.200	1180.000
4173.000	4734.400	1460.000
4174.000	4734.600	1510.000
4175.000	4734.800	1250.000
4176.000	4735.000	1420.000
4177.000	4735.200	1360.000
4178.000	4735.400	1230.000
4179.000	4735.600	920.000
4180.000	4735.800	1240.000
4181.000	4736.000	1350.000
4182.000	4736.200	1240.000
4183.000	4736.400	1330.000
4184.000	4736.600	1850.000
4185.000	4736.800	7440.000
4186.000	4737.000	20830.000
4187.000	4737.200	40510.000
4188.000	4737.400	30220.000
4189.000	4737.600	6150.000
4190.000	4737.800	1640.000
4191.000	4738.000	3190.000
4192.000	4738.200	9910.000
4193.000	4738.400	24940.000
4194.000	4738.600	34480.000
4195.000	4738.800	21820.000
4196.000	4739.000	5680.000
4197.000	4739.200	2800.000
4198.000	4739.400	1500.000
4199.000	4739.600	1250.000
4200.000	4739.800	1060.000
4201.000	4740.000	1060.000
4202.000	4740.200	1170.000
4203.000	4740.400	1100.000
4204.000	4740.600	1020.000
4205.000	4740.800	1200.000
4206.000	4741.000	970.000
4207.000	4741.200	1080.000
4208.000	4741.400	1130.000
4209.000	4741.600	1640.000
4210.000	4741.800	1660.000
4211.000	4742.000	1470.000
4212.000	4742.200	1140.000
4213.000	4742.400	960.000
4214.000	4742.600	1000.000
4215.000	4742.800	920.000
4216.000	4743.000	910.000
4217.000	4743.200	900.000
4218.000	4743.400	1040.000
4219.000	4743.600	1020.000
4220.000	4743.800	930.000
4221.000	4744.000	1120.000
4222.000	4744.200	1810.000
4223.000	4744.400	2540.000
4224.000	4744.600	2460.000
4225.000	4744.800	1650.000
4226.000	4745.000	750.000
4227.000	4745.200	940.000
4228.000	4745.400	1270.000
4229.000	4745.600	1190.000
4230.000	4745.800	1070.000
4231.000	4746.000	1170.000
4232.000	4746.200	1050.000
4233.000	4746.400	1160.000
4234.000	4746.600	1590.000
4235.000	4746.800	1300.000
4236.000	4747.000	990.000
4237.000	4747.200	890.000
4238.000	4747.400	1340.000
4239.000	4747.600	1220.000
4240.000	4747.800	1260.000
4241.000	4748.000	1360.000
4242.000	4748.200	1540.000
4243.000	4748.400	2060.000
4244.000	4748.600	2610.000
4245.000	4748.800	2830.000
4246.000	4749.000	1990.000
4247.000	4749.200	1390.000
4248.000	4749.400	1530.000
4249.000	4749.600	1310.000
4250.000	4749.800	1580.000
4251.000	4750.000	2440.000
4252.000	4750.200	3150.000
4253.000	4750.400	2640.000
4254.000	4750.600	1350.000
4255.000	4750.800	1430.000
4256.000	4751.000	1690.000
4257.000	4751.200	1750.000
4258.000	4751.400	2010.000
4259.000	4751.600	1740.000
4260.000	4751.800	1360.000
4261.000	4752.000	1540.000
4262.000	4752.200	900.000
4263.000	4752.400	980.000
4264.000	4752.600	1520.000
4265.000	4752.800	2370.000
4266.000	4753.000	2550.000
4267.000	4753.200	1780.000
4268.000	4753.400	1060.000
4269.000	4753.600	1080.000
4270.000	4753.800	1340.000
4271.000	4754.000	1320.000
4272.000	4754.200	1020.000
4273.000	4754.400	990.000
4274.000	4754.600	1180.000
4275.000	4754.800	1310.000
4276.000	4755.000	1250.000
4277.000	4755.200	1410.000
4278.000	4755.400	1430.000
4279.000	4755.600	1060.000
4280.000	4755.800	910.000
4281.000	4756.000	800.000
4282.000	4756.200	1010.000
4283.000	4756.400	870.000
4284.000	4756.600	970.000
4285.000	4756.800	950.000
4286.000	4757.000	880.000
4287.000	4757.200	1520.000
4288.000	4757.400	2300.000
4289.000	4757.600	1840.000
4290.000	4757.800	1020.000
4291.000	4758.000	1560.000
4292.000	4758.200	2810.000
4293.000	4758.400	2550.000
4294.000	4758.600	1810.000
4295.000	4758.800	1530.000
4296.000	4759.000	1450.000
4297.000	4759.200	930.000
4298.000	4759.400	970.000
4299.000	4759.600	1010.000
4300.000	4759.800	1090.000
4301.000	4760.000	1530.000
4302.000	4760.200	1350.000
4303.000	4760.400	1070.000
4304.000	4760.600	1190.000
4305.000	4760.800	1250.000
4306.000	4761.000	1110.000
4307.000	4761.200	950.000
4308.000	4761.400	740.000
4309.000	4761.600	770.000
4310.000	4761.800	770.000
4311.000	4762.000	730.000
4312.000	4762.200	730.000
4313.000	4762.400	900.000
4314.000	4762.600	980.000
4315.000	4762.800	890.000
4316.000	4763.000	1040.000
4317.000	4763.200	930.000
4318.000	4763.400	1270.000
4319.000	4763.600	1310.000
4320.000	4763.800	1530.000
4321.000	4764.000	2150.000
4322.000	4764.200	2300.000
4323.000	4764.400	1640.000
4324.000	4764.600	1190.000
4325.000	4764.800	980.000
4326.000	4765.000	1090.000
4327.000	4765.200	1270.000
4328.000	4765.400	980.000
4329.000	4765.600	970.000
4330.000	4765.800	950.000
4331.000	4766.000	760.000
4332.000	4766.200	640.000
4333.000	4766.400	660.000
4334.000	4766.600	800.000
4335.000	4766.800	850.000
4336.000	4767.000	1140.000
4337.000	4767.200	1110.000
4338.000	4767.400	1010.000
4339.000	4767.600	890.000
4340.000	4767.800	720.000
4341.000	4768.000	890.000
4342.000	4768.200	1200.000
4343.000	4768.400	1360.000
4344.000	4768.600	1710.000
4345.000	4768.800	1700.000
4346.000	4769.000	1720.000
4347.000	4769.200	2580.000
4348.000	4769.400	3080.000
4349.000	4769.600	2220.000
4350.000	4769.800	1670.000
4351.000	4770.000	1360.000
4352.000	4770.200	1120.000
4353.000	4770.400	1200.000
4354.000	4770.600	1280.000
4355.000	4770.800	800.000
4356.000	4771.000	910.000
4357.000	4771.200	810.000
4358.000	4771.400	1030.000
4359.000	4771.600	1490.000
4360.000	4771.800	1640.000
4361.000	4772.000	1110.000
4362.000	4772.200	900.000
4363.000	4772.400	1240.000
4364.000	4772.600	1550.000
4365.000	4772.800	1940.000
4366.000	4773.000	1190.000
4367.000	4773.200	1290.000
4368.000	4773.400	1460.000
4369.000	4773.600	1250.000
4370.000	4773.800	1000.000
4371.000	4774.000	920.000
4372.000	4774.200	990.000
4373.000	4774.400	930.000
4374.000	4774.600	1070.000
4375.000	4774.800	1630.000
4376.000	4775.000	2400.000
4377.000	4775.200	2120.000
4378.000	4775.400	2230.000
4379.000	4775.600	1540.000
4380.000	4775.800	860.000
4381.000	4776.000	710.000
4382.000	4776.200	1010.000
4383.000	4776.400	1130.000
4384.000	4776.600	1110.000
4385.000	4776.800	1480.000
4386.000	4777.000	3030.000
4387.000	4777.200	5320.000
4388.000	4777.400	4370.000
4389.000	4777.600	1600.000
4390.000	4777.800	1180.000
4391.000	4778.000	1320.000
4392.000	4778.200	1170.000
4393.000	4778.400	1880.000
4394.000	4778.600	2510.000
4395.000	4778.800	2190.000
4396.000	4779.000	2010.000
4397.000	4779.200	1470.000
4398.000	4779.400	1890.000
4399.000	4779.600	2170.000
4400.000	4779.800	1520.000
4401.000	4780.000	1040.000
4402.000	4780.200	700.000
4403.000	4780.400	1020.000
4404.000	4780.600	1250.000
4405.000	4780.800	2160.000
4406.000	4781.000	3780.000
4407.000	4781.200	3600.000
4408.000	4781.400	1910.000
4409.000	4781.600	1190.000
4410.000	4781.800	1180.000
4411.000	4782.000	1480.000
4412.000	4782.200	1430.000
4413.000	4782.400	1350.000
4414.000	4782.600	1160.000
4415.000	4782.800	1090.000
4416.000	4783.000	960.000
4417.000	4783.200	1200.000
4418.000	4783.400	860.000
4419.000	4783.600	900.000
4420.000	4783.800	800.000
4421.000	4784.000	890.000
4422.000	4784.200	770.000
4423.000	4784.400	790.000
4424.000	4784.600	880.000
4425.000	4784.800	1010.000
4426.000	4785.000	1300.000
4427.000	4785.200	1150.000
4428.000	4785.400	1280.000
4429.000	4785.600	1260.000
4430.000	4785.800	1520.000
4431.000	4786.000	1340.000
4432.000	4786.200	1040.000
4433.000	4786.400	790.000
4434.000	4786.600	830.000
4435.000	4786.800	1110.000
4436.000	4787.000	1620.000
4437.000	4787.200	1980.000
4438.000	4787.400	1060.000
4439.000	4787.600	1100.000
4440.000	4787.800	1090.000
4441.000	4788.000	1430.000
4442.000	4788.200	1820.000
4443.000	4788.400	3200.000
4444.000	4788.600	3490.000
4445.000	4788.800	3630.000
4446.000	4789.000	2240.000
4447.000	4789.200	1020.000
4448.000	4789.400	1490.000
4449.000	4789.600	2290.000
4450.000	4789.800	2240.000
4451.000	4790.000	1980.000
4452.000	4790.200	1010.000
4453.000	4790.400	1390.000
4454.000	4790.600	1170.000
4455.000	4790.800	960.000
4456.000	4791.000	830.000
4457.000	4791.200	970.000
4458.000	4791.400	760.000
4459.000	4791.600	840.000
4460.000	4791.800	970.000
4461.000	4792.000	980.000
4462.000	4792.200	1040.000
4463.000	4792.400	1010.000
4464.000	4792.600	1090.000
4465.000	4792.800	940.000
4466.000	4793.000	920.000
4467.000	4793.200	1180.000
4468.000	4793.400	1050.000
4469.000	4793.600	860.000
4470.000	4793.800	800.000
4471.000	4794.000	800.000
4472.000	4794.200	1030.000
4473.000	4794.400	950.000
4474.000	4794.600	880.000
4475.000	4794.800	930.000
4476.000	4795.000	830.000
4477.000	4795.200	980.000
4478.000	4795.400	980.000
4479.000	4795.600	820.000
4480.000	4795.800	920.000
4481.000	4796.000	1200.000
4482.000	4796.200	1310.000
4483.000	4796.400	960.000
4484.000	4796.600	960.000
4485.000	4796.800	910.000
4486.000	4797.000	760.000
4487.000	4797.200	840.000
4488.000	4797.400	1400.000
4489.000	4797.600	1540.000
4490.000	4797.800	1660.000
4491.000	4798.000	1330.000
4492.000	4798.200	1440.000
4493.000	4798.400	2040.000
4494.000	4798.600	1850.000
4495.000	4798.800	1520.000
4496.000	4799.000	820.000
4497.000	4799.200	1060.000
4498.000	4799.400	1090.000
4499.000	4799.600	1180.000
4500.000	4799.800	1080.000
4501.000	4800.000	1120.000
